Zeit (s) Messreihe #7	Spannung, Ch A (V) Messreihe #7	Spannung, Ch B (V) Messreihe #7
0,000	-0,002	0,083
0,050	-0,004	0,082
0,100	-0,006	0,081
0,150	-0,007	0,081
0,200	-0,009	0,080
0,250	-0,011	0,079
0,300	-0,013	0,078
0,350	-0,014	0,078
0,400	-0,015	0,077
0,450	-0,017	0,076
0,500	-0,020	0,074
0,550	-0,022	0,073
0,600	-0,024	0,072
0,650	-0,026	0,071
0,700	-0,028	0,069
0,750	-0,030	0,068
0,800	-0,031	0,067
0,850	-0,032	0,066
0,900	-0,033	0,065
0,950	-0,034	0,064
1,000	-0,034	0,064
1,050	-0,035	0,063
1,100	-0,036	0,063
1,150	-0,037	0,062
1,200	-0,038	0,061
1,250	-0,038	0,061
1,300	-0,039	0,060
1,350	-0,040	0,059
1,400	-0,041	0,059
1,450	-0,042	0,058
1,500	-0,044	0,057
1,550	-0,046	0,055
1,600	-0,047	0,054
1,650	-0,047	0,053
1,700	-0,048	0,052
1,750	-0,049	0,051
1,800	-0,050	0,050
1,850	-0,050	0,050
1,900	-0,050	0,050
1,950	-0,051	0,049
2,000	-0,051	0,049
2,050	-0,051	0,049
2,100	-0,051	0,048
2,150	-0,052	0,048
2,200	-0,052	0,048
2,250	-0,053	0,047
2,300	-0,054	0,047
2,350	-0,057	0,045
2,400	-0,058	0,043
2,450	-0,059	0,042
2,500	-0,060	0,041
2,550	-0,061	0,040
2,600	-0,063	0,038
2,650	-0,066	0,036
2,700	-0,068	0,034
2,750	-0,069	0,033
2,800	-0,071	0,031
2,850	-0,072	0,030
2,900	-0,073	0,028
2,950	-0,074	0,027
3,000	-0,074	0,026
3,050	-0,075	0,026
3,100	-0,076	0,025
3,150	-0,078	0,024
3,200	-0,081	0,021
3,250	-0,084	0,019
3,300	-0,087	0,016
3,350	-0,090	0,014
3,400	-0,094	0,010
3,450	-0,097	0,008
3,500	-0,101	0,004
3,550	-0,103	0,002
3,600	-0,106	-9,679E-4
3,650	-0,108	-0,003
3,700	-0,110	-0,005
3,750	-0,112	-0,006
3,800	-0,114	-0,008
3,850	-0,116	-0,010
3,900	-0,118	-0,012
3,950	-0,119	-0,013
4,000	-0,121	-0,014
4,050	-0,122	-0,015
4,100	-0,124	-0,016
4,150	-0,127	-0,018
4,200	-0,130	-0,021
4,250	-0,133	-0,023
4,300	-0,137	-0,025
4,350	-0,140	-0,027
4,400	-0,143	-0,029
4,450	-0,145	-0,031
4,500	-0,148	-0,033
4,550	-0,152	-0,035
4,600	-0,154	-0,037
4,650	-0,156	-0,038
4,700	-0,158	-0,039
4,750	-0,159	-0,040
4,800	-0,160	-0,041
4,850	-0,161	-0,041
4,900	-0,161	-0,041
4,950	-0,162	-0,042
5,000	-0,162	-0,042
5,050	-0,162	-0,042
5,100	-0,163	-0,043
5,150	-0,165	-0,043
5,200	-0,169	-0,045
5,250	-0,173	-0,046
5,300	-0,176	-0,048
5,350	-0,179	-0,050
5,400	-0,181	-0,051
5,450	-0,184	-0,052
5,500	-0,188	-0,054
5,550	-0,192	-0,055
5,600	-0,193	-0,056
5,650	-0,195	-0,057
5,700	-0,197	-0,058
5,750	-0,197	-0,058
5,800	-0,197	-0,058
5,850	-0,198	-0,058
5,900	-0,200	-0,059
5,950	-0,204	-0,060
6,000	-0,209	-0,062
6,050	-0,213	-0,063
6,100	-0,218	-0,065
6,150	-0,222	-0,066
6,200	-0,227	-0,068
6,250	-0,231	-0,069
6,300	-0,235	-0,071
6,350	-0,239	-0,071
6,400	-0,244	-0,073
6,450	-0,247	-0,074
6,500	-0,249	-0,075
6,550	-0,251	-0,075
6,600	-0,252	-0,076
6,650	-0,252	-0,075
6,700	-0,253	-0,076
6,750	-0,253	-0,076
6,800	-0,255	-0,077
6,850	-0,258	-0,077
6,900	-0,261	-0,078
6,950	-0,262	-0,078
7,000	-0,263	-0,079
7,050	-0,266	-0,079
7,100	-0,270	-0,080
7,150	-0,274	-0,081
7,200	-0,278	-0,082
7,250	-0,280	-0,082
7,300	-0,282	-0,083
7,350	-0,282	-0,083
7,400	-0,283	-0,083
7,450	-0,283	-0,083
7,500	-0,283	-0,084
7,550	-0,283	-0,083
7,600	-0,283	-0,084
7,650	-0,286	-0,083
7,700	-0,292	-0,085
7,750	-0,297	-0,086
7,800	-0,300	-0,087
7,850	-0,301	-0,087
7,900	-0,302	-0,088
7,950	-0,302	-0,087
8,000	-0,302	-0,087
8,050	-0,303	-0,087
8,100	-0,303	-0,088
8,150	-0,303	-0,087
8,200	-0,303	-0,088
8,250	-0,303	-0,087
8,300	-0,303	-0,088
8,350	-0,305	-0,088
8,400	-0,310	-0,089
8,450	-0,316	-0,090
8,500	-0,319	-0,091
8,550	-0,322	-0,091
8,600	-0,324	-0,092
8,650	-0,327	-0,091
8,700	-0,330	-0,093
8,750	-0,331	-0,093
8,800	-0,332	-0,093
8,850	-0,333	-0,093
8,900	-0,334	-0,093
8,950	-0,338	-0,094
9,000	-0,344	-0,095
9,050	-0,349	-0,095
9,100	-0,353	-0,097
9,150	-0,357	-0,097
9,200	-0,359	-0,097
9,250	-0,360	-0,097
9,300	-0,361	-0,098
9,350	-0,362	-0,098
9,400	-0,362	-0,098
9,450	-0,362	-0,097
9,500	-0,363	-0,099
9,550	-0,365	-0,098
9,600	-0,369	-0,099
9,650	-0,372	-0,099
9,700	-0,374	-0,100
9,750	-0,375	-0,100
9,800	-0,375	-0,100
9,850	-0,375	-0,099
9,900	-0,375	-0,100
9,950	-0,376	-0,100
10,000	-0,376	-0,100
10,050	-0,376	-0,100
10,100	-0,376	-0,100
10,150	-0,377	-0,100
10,200	-0,379	-0,101
10,250	-0,382	-0,100
10,300	-0,386	-0,102
10,350	-0,391	-0,101
10,400	-0,394	-0,103
10,450	-0,396	-0,102
10,500	-0,396	-0,103
10,550	-0,396	-0,102
10,600	-0,396	-0,103
10,650	-0,396	-0,102
10,700	-0,397	-0,103
10,750	-0,397	-0,102
10,800	-0,397	-0,104
10,850	-0,401	-0,103
10,900	-0,411	-0,105
10,950	-0,421	-0,105
11,000	-0,428	-0,107
11,050	-0,433	-0,107
11,100	-0,436	-0,108
11,150	-0,437	-0,107
11,200	-0,438	-0,108
11,250	-0,438	-0,108
11,300	-0,438	-0,109
11,350	-0,438	-0,108
11,400	-0,439	-0,109
11,450	-0,438	-0,108
11,500	-0,439	-0,109
11,550	-0,444	-0,109
11,600	-0,449	-0,109
11,650	-0,454	-0,110
11,700	-0,456	-0,110
11,750	-0,459	-0,110
11,800	-0,462	-0,111
11,850	-0,465	-0,110
11,900	-0,467	-0,112
11,950	-0,469	-0,111
12,000	-0,471	-0,112
12,050	-0,473	-0,112
12,100	-0,474	-0,112
12,150	-0,474	-0,112
12,200	-0,474	-0,113
12,250	-0,474	-0,112
12,300	-0,474	-0,113
12,350	-0,477	-0,112
12,400	-0,481	-0,113
12,450	-0,483	-0,113
12,500	-0,483	-0,114
12,550	-0,484	-0,113
12,600	-0,485	-0,114
12,650	-0,487	-0,113
12,700	-0,489	-0,114
12,750	-0,490	-0,114
12,800	-0,492	-0,114
12,850	-0,492	-0,113
12,900	-0,493	-0,115
12,950	-0,493	-0,114
13,000	-0,493	-0,115
13,050	-0,493	-0,114
13,100	-0,493	-0,115
13,150	-0,493	-0,114
13,200	-0,493	-0,115
13,250	-0,493	-0,114
13,300	-0,495	-0,115
13,350	-0,498	-0,114
13,400	-0,501	-0,116
13,450	-0,501	-0,114
13,500	-0,502	-0,115
13,550	-0,505	-0,115
13,600	-0,507	-0,116
13,650	-0,508	-0,115
13,700	-0,508	-0,116
13,750	-0,509	-0,115
13,800	-0,513	-0,116
13,850	-0,514	-0,116
13,900	-0,515	-0,117
13,950	-0,519	-0,116
14,000	-0,521	-0,118
14,050	-0,524	-0,117
14,100	-0,529	-0,118
14,150	-0,531	-0,117
14,200	-0,532	-0,118
14,250	-0,532	-0,117
14,300	-0,532	-0,119
14,350	-0,532	-0,118
14,400	-0,532	-0,118
14,450	-0,532	-0,118
14,500	-0,532	-0,119
14,550	-0,532	-0,117
14,600	-0,532	-0,119
14,650	-0,533	-0,118
14,700	-0,540	-0,119
14,750	-0,545	-0,119
14,800	-0,549	-0,120
14,850	-0,552	-0,120
14,900	-0,554	-0,120
14,950	-0,558	-0,120
15,000	-0,561	-0,121
15,050	-0,564	-0,121
15,100	-0,566	-0,121
15,150	-0,567	-0,121
15,200	-0,567	-0,122
15,250	-0,567	-0,121
15,300	-0,567	-0,121
15,350	-0,567	-0,121
15,400	-0,567	-0,121
15,450	-0,570	-0,121
15,500	-0,575	-0,123
15,550	-0,580	-0,122
15,600	-0,584	-0,123
15,650	-0,587	-0,123
15,700	-0,588	-0,123
15,750	-0,588	-0,123
15,800	-0,588	-0,124
15,850	-0,588	-0,123
15,900	-0,588	-0,123
15,950	-0,588	-0,123
16,000	-0,590	-0,124
16,050	-0,593	-0,123
16,100	-0,595	-0,124
16,150	-0,596	-0,123
16,200	-0,598	-0,124
16,250	-0,599	-0,124
16,300	-0,599	-0,124
16,350	-0,601	-0,124
16,400	-0,601	-0,125
16,450	-0,602	-0,124
16,500	-0,602	-0,125
16,550	-0,602	-0,124
16,600	-0,601	-0,124
16,650	-0,601	-0,124
16,700	-0,602	-0,125
16,750	-0,605	-0,124
16,800	-0,608	-0,125
16,850	-0,609	-0,124
16,900	-0,610	-0,125
16,950	-0,614	-0,125
17,000	-0,616	-0,126
17,050	-0,616	-0,125
17,100	-0,616	-0,126
17,150	-0,616	-0,125
17,200	-0,616	-0,126
17,250	-0,616	-0,125
17,300	-0,616	-0,126
17,350	-0,616	-0,125
17,400	-0,616	-0,126
17,450	-0,616	-0,125
17,500	-0,615	-0,126
17,550	-0,616	-0,125
17,600	-0,616	-0,126
17,650	-0,619	-0,125
17,700	-0,623	-0,126
17,750	-0,625	-0,126
17,800	-0,625	-0,126
17,850	-0,628	-0,126
17,900	-0,632	-0,127
17,950	-0,636	-0,127
18,000	-0,637	-0,127
18,050	-0,638	-0,127
18,100	-0,643	-0,128
18,150	-0,648	-0,128
18,200	-0,652	-0,128
18,250	-0,654	-0,128
18,300	-0,655	-0,129
18,350	-0,655	-0,128
18,400	-0,655	-0,129
18,450	-0,655	-0,128
18,500	-0,655	-0,129
18,550	-0,655	-0,128
18,600	-0,659	-0,129
18,650	-0,666	-0,129
18,700	-0,672	-0,130
18,750	-0,677	-0,130
18,800	-0,682	-0,131
18,850	-0,685	-0,131
18,900	-0,688	-0,131
18,950	-0,692	-0,131
19,000	-0,695	-0,132
19,050	-0,696	-0,132
19,100	-0,697	-0,133
19,150	-0,697	-0,132
19,200	-0,697	-0,132
19,250	-0,698	-0,132
19,300	-0,698	-0,132
19,350	-0,699	-0,132
19,400	-0,705	-0,133
19,450	-0,710	-0,132
19,500	-0,714	-0,133
19,550	-0,716	-0,133
19,600	-0,719	-0,133
19,650	-0,725	-0,134
19,700	-0,726	-0,134
19,750	-0,731	-0,134
19,800	-0,738	-0,135
19,850	-0,744	-0,135
19,900	-0,747	-0,136
19,950	-0,748	-0,135
20,000	-0,749	-0,136
20,050	-0,751	-0,135
20,100	-0,751	-0,136
20,150	-0,751	-0,135
20,200	-0,752	-0,136
20,250	-0,752	-0,135
20,300	-0,758	-0,136
20,350	-0,764	-0,136
20,400	-0,771	-0,137
20,450	-0,778	-0,137
20,500	-0,782	-0,138
20,550	-0,787	-0,138
20,600	-0,792	-0,138
20,650	-0,794	-0,138
20,700	-0,794	-0,139
20,750	-0,794	-0,138
20,800	-0,793	-0,138
20,850	-0,794	-0,138
20,900	-0,793	-0,138
20,950	-0,794	-0,138
21,000	-0,797	-0,138
21,050	-0,801	-0,138
21,100	-0,806	-0,139
21,150	-0,809	-0,139
21,200	-0,812	-0,140
21,250	-0,813	-0,139
21,300	-0,815	-0,140
21,350	-0,817	-0,140
21,400	-0,817	-0,140
21,450	-0,820	-0,140
21,500	-0,825	-0,140
21,550	-0,827	-0,140
21,600	-0,830	-0,141
21,650	-0,830	-0,140
21,700	-0,830	-0,141
21,750	-0,830	-0,140
21,800	-0,830	-0,141
21,850	-0,830	-0,140
21,900	-0,830	-0,141
21,950	-0,830	-0,140
22,000	-0,831	-0,141
22,050	-0,834	-0,140
22,100	-0,839	-0,141
22,150	-0,841	-0,141
22,200	-0,843	-0,141
22,250	-0,847	-0,141
22,300	-0,849	-0,142
22,350	-0,850	-0,142
22,400	-0,851	-0,142
22,450	-0,853	-0,142
22,500	-0,857	-0,142
22,550	-0,859	-0,142
22,600	-0,861	-0,142
22,650	-0,865	-0,142
22,700	-0,870	-0,143
22,750	-0,875	-0,143
22,800	-0,876	-0,143
22,850	-0,876	-0,143
22,900	-0,876	-0,143
22,950	-0,877	-0,143
23,000	-0,877	-0,143
23,050	-0,877	-0,143
23,100	-0,877	-0,143
23,150	-0,878	-0,143
23,200	-0,884	-0,144
23,250	-0,891	-0,144
23,300	-0,898	-0,145
23,350	-0,903	-0,145
23,400	-0,906	-0,145
23,450	-0,909	-0,145
23,500	-0,913	-0,145
23,550	-0,917	-0,145
23,600	-0,920	-0,146
23,650	-0,921	-0,146
23,700	-0,921	-0,146
23,750	-0,922	-0,146
23,800	-0,922	-0,146
23,850	-0,922	-0,146
23,900	-0,922	-0,146
23,950	-0,922	-0,146
24,000	-0,924	-0,146
24,050	-0,928	-0,146
24,100	-0,933	-0,147
24,150	-0,937	-0,147
24,200	-0,941	-0,147
24,250	-0,943	-0,147
24,300	-0,945	-0,147
24,350	-0,947	-0,147
24,400	-0,949	-0,147
24,450	-0,951	-0,147
24,500	-0,952	-0,147
24,550	-0,952	-0,147
24,600	-0,952	-0,147
24,650	-0,952	-0,147
24,700	-0,952	-0,147
24,750	-0,952	-0,147
24,800	-0,952	-0,147
24,850	-0,953	-0,147
24,900	-0,953	-0,147
24,950	-0,953	-0,147
25,000	-0,955	-0,147
25,050	-0,959	-0,148
25,100	-0,966	-0,148
25,150	-0,970	-0,148
25,200	-0,970	-0,148
25,250	-0,971	-0,148
25,300	-0,977	-0,149
25,350	-0,984	-0,149
25,400	-0,987	-0,149
25,450	-0,988	-0,150
25,500	-0,988	-0,149
25,550	-0,988	-0,149
25,600	-0,988	-0,150
25,650	-0,988	-0,149
25,700	-0,988	-0,149
25,750	-0,988	-0,149
25,800	-0,989	-0,149
25,850	-0,989	-0,149
25,900	-0,989	-0,149
25,950	-0,988	-0,149
26,000	-0,990	-0,149
26,050	-0,997	-0,150
26,100	-1,001	-0,150
26,150	-1,001	-0,150
26,200	-1,001	-0,150
26,250	-1,001	-0,150
26,300	-1,001	-0,150
26,350	-1,001	-0,150
26,400	-1,001	-0,150
26,450	-1,001	-0,150
26,500	-1,001	-0,150
26,550	-1,001	-0,150
26,600	-1,001	-0,150
26,650	-1,001	-0,150
26,700	-1,001	-0,150
26,750	-1,001	-0,150
26,800	-1,001	-0,150
26,850	-1,001	-0,150
26,900	-1,001	-0,150
26,950	-1,001	-0,150
27,000	-1,001	-0,150
27,050	-1,001	-0,150
27,100	-1,001	-0,150
27,150	-1,001	-0,150
27,200	-1,001	-0,150
27,250	-1,001	-0,150
27,300	-1,001	-0,150
27,350	-1,001	-0,150
27,400	-1,001	-0,150
27,450	-1,001	-0,150
27,500	-1,001	-0,150
27,550	-1,000	-0,150
27,600	-1,001	-0,150
27,650	-1,001	-0,150
27,700	-1,001	-0,150
27,750	-1,001	-0,150
27,800	-1,001	-0,150
27,850	-1,001	-0,150
27,900	-1,001	-0,150
27,950	-1,001	-0,150
28,000	-1,001	-0,150
28,050	-1,001	-0,150
28,100	-1,001	-0,150
28,150	-1,001	-0,150
28,200	-1,001	-0,150
28,250	-1,001	-0,150
28,300	-1,001	-0,150
28,350	-1,001	-0,150
28,400	-1,001	-0,150
28,450	-1,001	-0,150
28,500	-1,001	-0,150
28,550	-1,001	-0,150
28,600	-1,001	-0,150
28,650	-1,001	-0,150
28,700	-1,001	-0,150
28,750	-1,001	-0,150
28,800	-1,001	-0,150
28,850	-1,001	-0,150
28,900	-1,001	-0,150
28,950	-1,000	-0,150
29,000	-1,001	-0,150
29,050	-1,001	-0,150
29,100	-1,001	-0,150
29,150	-1,001	-0,150
29,200	-1,001	-0,150
29,250	-1,001	-0,150
29,300	-1,001	-0,150
29,350	-1,001	-0,150
29,400	-1,001	-0,150
29,450	-1,000	-0,150
29,500	-1,001	-0,150
29,550	-1,001	-0,150
29,600	-1,001	-0,150
29,650	-1,000	-0,150
29,700	-1,001	-0,150
29,750	-1,001	-0,150
29,800	-1,001	-0,150
29,850	-1,001	-0,150
29,900	-1,001	-0,149
29,950	-1,001	-0,150
30,000	-1,001	-0,150
30,050	-1,001	-0,150
30,100	-1,001	-0,150
30,150	-1,001	-0,150
30,200	-1,001	-0,150
30,250	-1,001	-0,150
30,300	-1,000	-0,149
30,350	-1,001	-0,150
30,400	-1,001	-0,150
30,450	-1,001	-0,150
30,500	-1,001	-0,150
30,550	-1,001	-0,150
30,600	-1,001	-0,150
30,650	-1,001	-0,150
30,700	-1,001	-0,149
30,750	-1,001	-0,150
30,800	-1,001	-0,150
30,850	-1,001	-0,150
30,900	-1,001	-0,150
30,950	-1,000	-0,150
31,000	-1,000	-0,149
31,050	-1,001	-0,150
31,100	-1,001	-0,150
31,150	-1,001	-0,150
31,200	-1,001	-0,150
31,250	-1,001	-0,150
31,300	-1,001	-0,150
31,350	-1,001	-0,150
31,400	-1,001	-0,150
31,450	-1,001	-0,150
31,500	-1,001	-0,150
31,550	-1,001	-0,150
31,600	-1,001	-0,150
31,650	-1,001	-0,150
31,700	-1,001	-0,150
31,750	-1,001	-0,150
31,800	-1,001	-0,150
31,850	-1,000	-0,150
31,900	-1,001	-0,150
31,950	-1,001	-0,150
32,000	-1,001	-0,150
32,050	-1,001	-0,150
32,100	-1,000	-0,149
32,150	-1,001	-0,150
32,200	-1,001	-0,150
32,250	-1,000	-0,150
32,300	-1,001	-0,150
32,350	-1,001	-0,150
32,400	-1,001	-0,150
32,450	-1,001	-0,150
32,500	-1,001	-0,149
32,550	-1,001	-0,150
32,600	-1,001	-0,149
32,650	-1,001	-0,150
32,700	-1,000	-0,149
32,750	-1,001	-0,150
32,800	-1,001	-0,150
32,850	-1,001	-0,150
32,900	-1,001	-0,149
32,950	-1,001	-0,150
33,000	-1,001	-0,150
33,050	-1,000	-0,150
33,100	-1,001	-0,150
33,150	-1,001	-0,150
33,200	-1,001	-0,149
33,250	-1,001	-0,150
33,300	-1,001	-0,149
33,350	-1,001	-0,150
33,400	-1,001	-0,149
33,450	-1,001	-0,150
33,500	-1,000	-0,149
33,550	-1,001	-0,150
33,600	-1,001	-0,149
33,650	-1,001	-0,150
33,700	-1,001	-0,149
33,750	-1,001	-0,150
33,800	-1,001	-0,150
33,850	-1,000	-0,150
33,900	-1,001	-0,150
33,950	-1,001	-0,150
34,000	-1,001	-0,149
34,050	-1,001	-0,150
34,100	-1,000	-0,149
34,150	-1,001	-0,150
34,200	-1,001	-0,150
34,250	-1,001	-0,150
34,300	-1,001	-0,150
34,350	-1,001	-0,150
34,400	-1,001	-0,149
34,450	-1,000	-0,150
34,500	-1,001	-0,150
34,550	-1,001	-0,150
34,600	-1,001	-0,149
34,650	-1,001	-0,150
34,700	-1,001	-0,149
34,750	-1,000	-0,150
34,800	-1,001	-0,149
34,850	-1,001	-0,150
34,900	-1,001	-0,149
34,950	-1,000	-0,150
35,000	-0,998	-0,149
35,050	-0,997	-0,150
35,100	-0,997	-0,149
35,150	-0,997	-0,150
35,200	-0,997	-0,149
35,250	-0,997	-0,150
35,300	-0,997	-0,149
35,350	-0,997	-0,150
35,400	-0,997	-0,149
35,450	-0,997	-0,150
35,500	-0,997	-0,149
35,550	-0,994	-0,150
35,600	-0,989	-0,149
35,650	-0,988	-0,150
35,700	-0,988	-0,149
35,750	-0,987	-0,149
35,800	-0,986	-0,149
35,850	-0,983	-0,149
35,900	-0,982	-0,148
35,950	-0,982	-0,149
36,000	-0,982	-0,148
36,050	-0,974	-0,149
36,100	-0,965	-0,148
36,150	-0,959	-0,148
36,200	-0,956	-0,147
36,250	-0,956	-0,148
36,300	-0,956	-0,148
36,350	-0,956	-0,148
36,400	-0,956	-0,147
36,450	-0,956	-0,148
36,500	-0,956	-0,148
36,550	-0,956	-0,148
36,600	-0,956	-0,148
36,650	-0,956	-0,148
36,700	-0,956	-0,148
36,750	-0,956	-0,148
36,800	-0,952	-0,147
36,850	-0,942	-0,148
36,900	-0,932	-0,146
36,950	-0,927	-0,147
37,000	-0,927	-0,146
37,050	-0,927	-0,147
37,100	-0,927	-0,146
37,150	-0,927	-0,147
37,200	-0,927	-0,146
37,250	-0,927	-0,147
37,300	-0,926	-0,146
37,350	-0,927	-0,147
37,400	-0,926	-0,146
37,450	-0,926	-0,147
37,500	-0,920	-0,146
37,550	-0,913	-0,146
37,600	-0,908	-0,145
37,650	-0,905	-0,146
37,700	-0,905	-0,145
37,750	-0,904	-0,146
37,800	-0,900	-0,145
37,850	-0,895	-0,145
37,900	-0,892	-0,145
37,950	-0,891	-0,145
38,000	-0,891	-0,145
38,050	-0,891	-0,146
38,100	-0,891	-0,145
38,150	-0,891	-0,145
38,200	-0,891	-0,145
38,250	-0,891	-0,145
38,300	-0,891	-0,144
38,350	-0,891	-0,145
38,400	-0,889	-0,145
38,450	-0,883	-0,145
38,500	-0,879	-0,144
38,550	-0,878	-0,145
38,600	-0,878	-0,144
38,650	-0,877	-0,145
38,700	-0,875	-0,144
38,750	-0,873	-0,145
38,800	-0,873	-0,144
38,850	-0,873	-0,144
38,900	-0,873	-0,144
38,950	-0,872	-0,144
39,000	-0,869	-0,143
39,050	-0,868	-0,144
39,100	-0,868	-0,143
39,150	-0,868	-0,144
39,200	-0,868	-0,143
39,250	-0,868	-0,144
39,300	-0,861	-0,143
39,350	-0,856	-0,144
39,400	-0,855	-0,143
39,450	-0,855	-0,144
39,500	-0,855	-0,143
39,550	-0,855	-0,144
39,600	-0,854	-0,143
39,650	-0,855	-0,144
39,700	-0,854	-0,143
39,750	-0,855	-0,144
39,800	-0,855	-0,143
39,850	-0,854	-0,144
39,900	-0,854	-0,143
39,950	-0,851	-0,143
40,000	-0,851	-0,143
40,050	-0,851	-0,143
40,100	-0,851	-0,143
40,150	-0,851	-0,144
40,200	-0,848	-0,143
40,250	-0,835	-0,143
40,300	-0,827	-0,141
40,350	-0,823	-0,142
40,400	-0,820	-0,141
40,450	-0,817	-0,142
40,500	-0,816	-0,141
40,550	-0,816	-0,142
40,600	-0,815	-0,141
40,650	-0,816	-0,142
40,700	-0,816	-0,141
40,750	-0,815	-0,142
40,800	-0,816	-0,141
40,850	-0,815	-0,142
40,900	-0,815	-0,141
40,950	-0,813	-0,142
41,000	-0,806	-0,141
41,050	-0,798	-0,141
41,100	-0,794	-0,140
41,150	-0,793	-0,141
41,200	-0,792	-0,140
41,250	-0,789	-0,141
41,300	-0,784	-0,140
41,350	-0,782	-0,140
41,400	-0,781	-0,139
41,450	-0,780	-0,140
41,500	-0,781	-0,140
41,550	-0,781	-0,140
41,600	-0,780	-0,139
41,650	-0,780	-0,140
41,700	-0,781	-0,140
41,750	-0,780	-0,140
41,800	-0,778	-0,139
41,850	-0,774	-0,140
41,900	-0,768	-0,139
41,950	-0,763	-0,139
42,000	-0,762	-0,139
42,050	-0,762	-0,139
42,100	-0,762	-0,138
42,150	-0,758	-0,139
42,200	-0,756	-0,138
42,250	-0,756	-0,139
42,300	-0,756	-0,138
42,350	-0,756	-0,139
42,400	-0,756	-0,138
42,450	-0,756	-0,139
42,500	-0,756	-0,138
42,550	-0,756	-0,139
42,600	-0,756	-0,138
42,650	-0,756	-0,139
42,700	-0,756	-0,138
42,750	-0,756	-0,139
42,800	-0,756	-0,138
42,850	-0,756	-0,139
42,900	-0,756	-0,138
42,950	-0,756	-0,139
43,000	-0,756	-0,138
43,050	-0,756	-0,139
43,100	-0,756	-0,138
43,150	-0,756	-0,139
43,200	-0,756	-0,138
43,250	-0,756	-0,139
43,300	-0,756	-0,138
43,350	-0,756	-0,139
43,400	-0,756	-0,138
43,450	-0,756	-0,139
43,500	-0,750	-0,138
43,550	-0,743	-0,138
43,600	-0,741	-0,138
43,650	-0,741	-0,138
43,700	-0,741	-0,137
43,750	-0,741	-0,138
43,800	-0,741	-0,138
43,850	-0,741	-0,138
43,900	-0,741	-0,137
43,950	-0,741	-0,138
44,000	-0,739	-0,138
44,050	-0,738	-0,138
44,100	-0,738	-0,137
44,150	-0,738	-0,138
44,200	-0,735	-0,137
44,250	-0,727	-0,138
44,300	-0,721	-0,136
44,350	-0,720	-0,137
44,400	-0,720	-0,137
44,450	-0,720	-0,137
44,500	-0,720	-0,137
44,550	-0,720	-0,137
44,600	-0,720	-0,136
44,650	-0,720	-0,137
44,700	-0,720	-0,137
44,750	-0,720	-0,137
44,800	-0,720	-0,137
44,850	-0,720	-0,137
44,900	-0,720	-0,137
44,950	-0,720	-0,137
45,000	-0,720	-0,136
45,050	-0,720	-0,137
45,100	-0,720	-0,137
45,150	-0,718	-0,137
45,200	-0,711	-0,136
45,250	-0,705	-0,136
45,300	-0,704	-0,136
45,350	-0,703	-0,136
45,400	-0,701	-0,136
45,450	-0,697	-0,136
45,500	-0,693	-0,135
45,550	-0,690	-0,136
45,600	-0,689	-0,135
45,650	-0,689	-0,136
45,700	-0,688	-0,135
45,750	-0,684	-0,135
45,800	-0,678	-0,134
45,850	-0,674	-0,135
45,900	-0,673	-0,134
45,950	-0,672	-0,134
46,000	-0,673	-0,134
46,050	-0,673	-0,135
46,100	-0,672	-0,134
46,150	-0,672	-0,134
46,200	-0,673	-0,134
46,250	-0,673	-0,134
46,300	-0,672	-0,134
46,350	-0,672	-0,134
46,400	-0,671	-0,134
46,450	-0,668	-0,134
46,500	-0,662	-0,133
46,550	-0,659	-0,134
46,600	-0,659	-0,133
46,650	-0,658	-0,134
46,700	-0,658	-0,133
46,750	-0,658	-0,134
46,800	-0,656	-0,133
46,850	-0,655	-0,133
46,900	-0,655	-0,133
46,950	-0,655	-0,134
47,000	-0,653	-0,133
47,050	-0,652	-0,133
47,100	-0,650	-0,133
47,150	-0,649	-0,133
47,200	-0,649	-0,132
47,250	-0,649	-0,133
47,300	-0,649	-0,133
47,350	-0,646	-0,133
47,400	-0,646	-0,133
47,450	-0,645	-0,133
47,500	-0,645	-0,132
47,550	-0,644	-0,133
47,600	-0,641	-0,132
47,650	-0,641	-0,133
47,700	-0,641	-0,132
47,750	-0,640	-0,132
47,800	-0,640	-0,132
47,850	-0,640	-0,132
47,900	-0,640	-0,132
47,950	-0,640	-0,132
48,000	-0,640	-0,132
48,050	-0,640	-0,133
48,100	-0,639	-0,132
48,150	-0,638	-0,132
48,200	-0,637	-0,132
48,250	-0,636	-0,133
48,300	-0,635	-0,132
48,350	-0,634	-0,132
48,400	-0,632	-0,132
48,450	-0,631	-0,132
48,500	-0,628	-0,131
48,550	-0,623	-0,132
48,600	-0,620	-0,131
48,650	-0,620	-0,131
48,700	-0,619	-0,131
48,750	-0,619	-0,131
48,800	-0,619	-0,131
48,850	-0,618	-0,131
48,900	-0,615	-0,131
48,950	-0,614	-0,131
49,000	-0,613	-0,131
49,050	-0,613	-0,131
49,100	-0,612	-0,130
49,150	-0,612	-0,131
49,200	-0,611	-0,131
49,250	-0,611	-0,131
49,300	-0,611	-0,130
49,350	-0,611	-0,131
49,400	-0,611	-0,131
49,450	-0,611	-0,131
49,500	-0,612	-0,131
49,550	-0,611	-0,131
49,600	-0,611	-0,130
49,650	-0,611	-0,131
49,700	-0,609	-0,131
49,750	-0,607	-0,130
49,800	-0,606	-0,130
49,850	-0,605	-0,130
49,900	-0,603	-0,130
49,950	-0,602	-0,130
50,000	-0,600	-0,130
50,050	-0,596	-0,130
50,100	-0,595	-0,130
50,150	-0,595	-0,129
50,200	-0,595	-0,130
50,250	-0,595	-0,129
50,300	-0,595	-0,130
50,350	-0,595	-0,130
50,400	-0,595	-0,130
50,450	-0,595	-0,130
50,500	-0,595	-0,130
50,550	-0,595	-0,130
50,600	-0,595	-0,129
50,650	-0,595	-0,129
50,700	-0,591	-0,129
50,750	-0,584	-0,129
50,800	-0,581	-0,129
50,850	-0,580	-0,128
50,900	-0,580	-0,129
50,950	-0,580	-0,129
51,000	-0,579	-0,129
51,050	-0,576	-0,128
51,100	-0,571	-0,128
51,150	-0,566	-0,128
51,200	-0,563	-0,128
51,250	-0,562	-0,127
51,300	-0,561	-0,128
51,350	-0,559	-0,127
51,400	-0,556	-0,127
51,450	-0,554	-0,127
51,500	-0,553	-0,127
51,550	-0,552	-0,127
51,600	-0,550	-0,127
51,650	-0,549	-0,127
51,700	-0,547	-0,126
51,750	-0,546	-0,126
51,800	-0,546	-0,127
51,850	-0,546	-0,127
51,900	-0,546	-0,127
51,950	-0,546	-0,126
52,000	-0,546	-0,127
52,050	-0,546	-0,126
52,100	-0,546	-0,127
52,150	-0,545	-0,127
52,200	-0,545	-0,127
52,250	-0,545	-0,126
52,300	-0,545	-0,127
52,350	-0,544	-0,126
52,400	-0,543	-0,127
52,450	-0,541	-0,126
52,500	-0,541	-0,126
52,550	-0,539	-0,126
52,600	-0,536	-0,126
52,650	-0,535	-0,126
52,700	-0,535	-0,126
52,750	-0,535	-0,126
52,800	-0,533	-0,126
52,850	-0,528	-0,125
52,900	-0,525	-0,126
52,950	-0,524	-0,125
53,000	-0,524	-0,126
53,050	-0,524	-0,125
53,100	-0,519	-0,125
53,150	-0,514	-0,124
53,200	-0,513	-0,125
53,250	-0,512	-0,124
53,300	-0,512	-0,124
53,350	-0,512	-0,124
53,400	-0,512	-0,125
53,450	-0,512	-0,124
53,500	-0,512	-0,125
53,550	-0,513	-0,125
53,600	-0,512	-0,125
53,650	-0,512	-0,124
53,700	-0,512	-0,125
53,750	-0,512	-0,124
53,800	-0,512	-0,125
53,850	-0,510	-0,124
53,900	-0,505	-0,124
53,950	-0,503	-0,123
54,000	-0,502	-0,124
54,050	-0,499	-0,123
54,100	-0,494	-0,123
54,150	-0,491	-0,123
54,200	-0,490	-0,123
54,250	-0,489	-0,122
54,300	-0,486	-0,123
54,350	-0,482	-0,122
54,400	-0,477	-0,122
54,450	-0,473	-0,121
54,500	-0,470	-0,122
54,550	-0,467	-0,121
54,600	-0,464	-0,121
54,650	-0,462	-0,121
54,700	-0,461	-0,121
54,750	-0,460	-0,120
54,800	-0,460	-0,121
54,850	-0,459	-0,120
54,900	-0,457	-0,121
54,950	-0,457	-0,120
55,000	-0,457	-0,121
55,050	-0,457	-0,120
55,100	-0,458	-0,121
55,150	-0,457	-0,120
55,200	-0,457	-0,121
55,250	-0,457	-0,120
55,300	-0,457	-0,121
55,350	-0,454	-0,120
55,400	-0,449	-0,120
55,450	-0,445	-0,119
55,500	-0,442	-0,120
55,550	-0,439	-0,119
55,600	-0,438	-0,120
55,650	-0,438	-0,119
55,700	-0,438	-0,120
55,750	-0,438	-0,119
55,800	-0,438	-0,119
55,850	-0,438	-0,119
55,900	-0,438	-0,120
55,950	-0,438	-0,119
56,000	-0,438	-0,120
56,050	-0,438	-0,119
56,100	-0,438	-0,119
56,150	-0,436	-0,119
56,200	-0,431	-0,119
56,250	-0,424	-0,118
56,300	-0,421	-0,118
56,350	-0,421	-0,117
56,400	-0,420	-0,118
56,450	-0,417	-0,117
56,500	-0,416	-0,118
56,550	-0,416	-0,117
56,600	-0,416	-0,118
56,650	-0,416	-0,117
56,700	-0,416	-0,118
56,750	-0,416	-0,117
56,800	-0,415	-0,118
56,850	-0,415	-0,117
56,900	-0,415	-0,118
56,950	-0,416	-0,117
57,000	-0,415	-0,117
57,050	-0,416	-0,117
57,100	-0,415	-0,118
57,150	-0,416	-0,117
57,200	-0,415	-0,118
57,250	-0,416	-0,117
57,300	-0,415	-0,118
57,350	-0,416	-0,117
57,400	-0,415	-0,118
57,450	-0,416	-0,117
57,500	-0,416	-0,118
57,550	-0,415	-0,117
57,600	-0,415	-0,117
57,650	-0,415	-0,116
57,700	-0,416	-0,118
57,750	-0,416	-0,117
57,800	-0,415	-0,118
57,850	-0,412	-0,117
57,900	-0,411	-0,117
57,950	-0,411	-0,116
58,000	-0,411	-0,117
58,050	-0,411	-0,116
58,100	-0,411	-0,118
58,150	-0,410	-0,116
58,200	-0,405	-0,117
58,250	-0,400	-0,115
58,300	-0,398	-0,117
58,350	-0,397	-0,115
58,400	-0,397	-0,116
58,450	-0,397	-0,116
58,500	-0,397	-0,116
58,550	-0,397	-0,115
58,600	-0,397	-0,116
58,650	-0,397	-0,115
58,700	-0,397	-0,116
58,750	-0,397	-0,115
58,800	-0,397	-0,116
58,850	-0,397	-0,115
58,900	-0,397	-0,116
58,950	-0,397	-0,115
59,000	-0,397	-0,116
59,050	-0,397	-0,115
59,100	-0,397	-0,116
59,150	-0,397	-0,115
59,200	-0,397	-0,116
59,250	-0,397	-0,115
59,300	-0,397	-0,116
59,350	-0,397	-0,115
59,400	-0,397	-0,116
59,450	-0,397	-0,115
59,500	-0,397	-0,116
59,550	-0,397	-0,115
59,600	-0,394	-0,116
59,650	-0,385	-0,114
59,700	-0,377	-0,115
59,750	-0,374	-0,113
59,800	-0,374	-0,114
59,850	-0,373	-0,113
59,900	-0,371	-0,114
59,950	-0,370	-0,113
60,000	-0,370	-0,114
60,050	-0,369	-0,113
60,100	-0,368	-0,114
60,150	-0,366	-0,112
60,200	-0,366	-0,114
60,250	-0,365	-0,112
60,300	-0,362	-0,113
60,350	-0,358	-0,112
60,400	-0,353	-0,112
60,450	-0,349	-0,111
60,500	-0,348	-0,112
60,550	-0,348	-0,111
60,600	-0,348	-0,112
60,650	-0,348	-0,111
60,700	-0,347	-0,112
60,750	-0,347	-0,110
60,800	-0,347	-0,112
60,850	-0,347	-0,110
60,900	-0,347	-0,112
60,950	-0,347	-0,110
61,000	-0,347	-0,112
61,050	-0,348	-0,111
61,100	-0,347	-0,112
61,150	-0,347	-0,111
61,200	-0,347	-0,112
61,250	-0,348	-0,111
61,300	-0,347	-0,112
61,350	-0,347	-0,110
61,400	-0,347	-0,112
61,450	-0,344	-0,111
61,500	-0,342	-0,111
61,550	-0,340	-0,110
61,600	-0,338	-0,111
61,650	-0,337	-0,109
61,700	-0,337	-0,110
61,750	-0,337	-0,109
61,800	-0,337	-0,111
61,850	-0,337	-0,109
61,900	-0,337	-0,111
61,950	-0,337	-0,109
62,000	-0,337	-0,111
62,050	-0,337	-0,109
62,100	-0,337	-0,111
62,150	-0,336	-0,109
62,200	-0,331	-0,110
62,250	-0,325	-0,108
62,300	-0,322	-0,109
62,350	-0,321	-0,108
62,400	-0,318	-0,109
62,450	-0,315	-0,107
62,500	-0,314	-0,108
62,550	-0,314	-0,107
62,600	-0,314	-0,108
62,650	-0,314	-0,107
62,700	-0,314	-0,108
62,750	-0,314	-0,107
62,800	-0,314	-0,108
62,850	-0,314	-0,107
62,900	-0,314	-0,108
62,950	-0,310	-0,107
63,000	-0,307	-0,108
63,050	-0,306	-0,106
63,100	-0,306	-0,107
63,150	-0,306	-0,106
63,200	-0,306	-0,108
63,250	-0,306	-0,106
63,300	-0,306	-0,107
63,350	-0,306	-0,106
63,400	-0,306	-0,107
63,450	-0,306	-0,106
63,500	-0,306	-0,108
63,550	-0,306	-0,106
63,600	-0,306	-0,107
63,650	-0,306	-0,106
63,700	-0,306	-0,107
63,750	-0,306	-0,106
63,800	-0,305	-0,107
63,850	-0,306	-0,106
63,900	-0,306	-0,108
63,950	-0,306	-0,106
64,000	-0,306	-0,107
64,050	-0,304	-0,106
64,100	-0,300	-0,107
64,150	-0,299	-0,105
64,200	-0,299	-0,106
64,250	-0,299	-0,105
64,300	-0,299	-0,106
64,350	-0,299	-0,105
64,400	-0,298	-0,106
64,450	-0,299	-0,105
64,500	-0,299	-0,107
64,550	-0,299	-0,105
64,600	-0,298	-0,106
64,650	-0,299	-0,105
64,700	-0,299	-0,106
64,750	-0,299	-0,105
64,800	-0,298	-0,106
64,850	-0,298	-0,105
64,900	-0,299	-0,107
64,950	-0,299	-0,105
65,000	-0,299	-0,106
65,050	-0,299	-0,106
65,100	-0,299	-0,107
65,150	-0,299	-0,105
65,200	-0,299	-0,106
65,250	-0,299	-0,105
65,300	-0,298	-0,106
65,350	-0,299	-0,105
65,400	-0,299	-0,106
65,450	-0,298	-0,105
65,500	-0,297	-0,106
65,550	-0,297	-0,105
65,600	-0,297	-0,106
65,650	-0,296	-0,105
65,700	-0,293	-0,106
65,750	-0,287	-0,104
65,800	-0,284	-0,105
65,850	-0,282	-0,103
65,900	-0,282	-0,104
65,950	-0,281	-0,103
66,000	-0,282	-0,104
66,050	-0,281	-0,103
66,100	-0,281	-0,104
66,150	-0,278	-0,103
66,200	-0,272	-0,103
66,250	-0,268	-0,101
66,300	-0,267	-0,102
66,350	-0,266	-0,101
66,400	-0,265	-0,102
66,450	-0,265	-0,101
66,500	-0,263	-0,102
66,550	-0,262	-0,100
66,600	-0,262	-0,101
66,650	-0,260	-0,100
66,700	-0,258	-0,101
66,750	-0,253	-0,099
66,800	-0,248	-0,100
66,850	-0,245	-0,098
66,900	-0,243	-0,099
66,950	-0,241	-0,098
67,000	-0,241	-0,099
67,050	-0,240	-0,097
67,100	-0,240	-0,098
67,150	-0,239	-0,097
67,200	-0,238	-0,098
67,250	-0,238	-0,097
67,300	-0,238	-0,098
67,350	-0,238	-0,097
67,400	-0,238	-0,098
67,450	-0,238	-0,097
67,500	-0,238	-0,098
67,550	-0,238	-0,097
67,600	-0,236	-0,098
67,650	-0,235	-0,097
67,700	-0,233	-0,098
67,750	-0,231	-0,096
67,800	-0,230	-0,097
67,850	-0,229	-0,096
67,900	-0,227	-0,097
67,950	-0,225	-0,095
68,000	-0,223	-0,096
68,050	-0,222	-0,095
68,100	-0,221	-0,095
68,150	-0,220	-0,094
68,200	-0,218	-0,094
68,250	-0,216	-0,094
68,300	-0,214	-0,094
68,350	-0,213	-0,093
68,400	-0,211	-0,094
68,450	-0,210	-0,092
68,500	-0,209	-0,093
68,550	-0,207	-0,092
68,600	-0,206	-0,092
68,650	-0,205	-0,092
68,700	-0,205	-0,092
68,750	-0,204	-0,091
68,800	-0,204	-0,092
68,850	-0,205	-0,092
68,900	-0,204	-0,092
68,950	-0,204	-0,091
69,000	-0,204	-0,092
69,050	-0,204	-0,091
69,100	-0,204	-0,092
69,150	-0,204	-0,091
69,200	-0,204	-0,092
69,250	-0,204	-0,091
69,300	-0,202	-0,092
69,350	-0,201	-0,091
69,400	-0,200	-0,092
69,450	-0,199	-0,090
69,500	-0,196	-0,090
69,550	-0,193	-0,089
69,600	-0,191	-0,090
69,650	-0,190	-0,088
69,700	-0,190	-0,089
69,750	-0,189	-0,088
69,800	-0,190	-0,089
69,850	-0,189	-0,088
69,900	-0,189	-0,089
69,950	-0,189	-0,088
70,000	-0,189	-0,089
70,050	-0,189	-0,088
70,100	-0,189	-0,089
70,150	-0,189	-0,088
70,200	-0,189	-0,089
70,250	-0,189	-0,088
70,300	-0,189	-0,089
70,350	-0,189	-0,088
70,400	-0,189	-0,089
70,450	-0,189	-0,088
70,500	-0,189	-0,089
70,550	-0,189	-0,088
70,600	-0,189	-0,089
70,650	-0,189	-0,088
70,700	-0,189	-0,089
70,750	-0,189	-0,088
70,800	-0,189	-0,089
70,850	-0,189	-0,088
70,900	-0,189	-0,089
70,950	-0,189	-0,088
71,000	-0,188	-0,088
71,050	-0,186	-0,088
71,100	-0,186	-0,088
71,150	-0,185	-0,087
71,200	-0,185	-0,088
71,250	-0,185	-0,087
71,300	-0,184	-0,087
71,350	-0,185	-0,087
71,400	-0,184	-0,088
71,450	-0,184	-0,087
71,500	-0,184	-0,087
71,550	-0,184	-0,087
71,600	-0,184	-0,087
71,650	-0,185	-0,087
71,700	-0,184	-0,088
71,750	-0,184	-0,087
71,800	-0,183	-0,087
71,850	-0,183	-0,087
71,900	-0,183	-0,087
71,950	-0,183	-0,087
72,000	-0,181	-0,087
72,050	-0,176	-0,085
72,100	-0,168	-0,084
72,150	-0,160	-0,082
72,200	-0,154	-0,080
72,250	-0,151	-0,079
72,300	-0,149	-0,078
72,350	-0,148	-0,077
72,400	-0,147	-0,077
72,450	-0,146	-0,077
72,500	-0,146	-0,077
72,550	-0,145	-0,076
72,600	-0,144	-0,076
72,650	-0,144	-0,076
72,700	-0,143	-0,076
72,750	-0,143	-0,075
72,800	-0,143	-0,076
72,850	-0,142	-0,075
72,900	-0,143	-0,076
72,950	-0,142	-0,075
73,000	-0,142	-0,075
73,050	-0,142	-0,075
73,100	-0,142	-0,075
73,150	-0,141	-0,075
73,200	-0,139	-0,074
73,250	-0,137	-0,073
73,300	-0,136	-0,073
73,350	-0,135	-0,073
73,400	-0,134	-0,073
73,450	-0,133	-0,072
73,500	-0,132	-0,072
73,550	-0,131	-0,071
73,600	-0,131	-0,071
73,650	-0,130	-0,071
73,700	-0,130	-0,071
73,750	-0,129	-0,070
73,800	-0,129	-0,070
73,850	-0,128	-0,070
73,900	-0,127	-0,070
73,950	-0,126	-0,069
74,000	-0,125	-0,069
74,050	-0,124	-0,068
74,100	-0,121	-0,067
74,150	-0,119	-0,066
74,200	-0,118	-0,066
74,250	-0,117	-0,065
74,300	-0,116	-0,065
74,350	-0,115	-0,064
74,400	-0,114	-0,064
74,450	-0,114	-0,063
74,500	-0,113	-0,063
74,550	-0,112	-0,063
74,600	-0,111	-0,062
74,650	-0,110	-0,062
74,700	-0,109	-0,061
74,750	-0,108	-0,060
74,800	-0,108	-0,060
74,850	-0,107	-0,060
74,900	-0,107	-0,060
74,950	-0,106	-0,059
75,000	-0,106	-0,059
75,050	-0,106	-0,059
75,100	-0,105	-0,059
75,150	-0,105	-0,059
75,200	-0,105	-0,059
75,250	-0,105	-0,059
75,300	-0,105	-0,059
75,350	-0,105	-0,059
75,400	-0,105	-0,058
75,450	-0,105	-0,058
75,500	-0,105	-0,058
75,550	-0,104	-0,058
75,600	-0,103	-0,058
75,650	-0,101	-0,057
75,700	-0,100	-0,057
75,750	-0,099	-0,055
75,800	-0,098	-0,055
75,850	-0,097	-0,054
75,900	-0,096	-0,053
75,950	-0,095	-0,053
76,000	-0,094	-0,052
76,050	-0,093	-0,052
76,100	-0,092	-0,051
76,150	-0,091	-0,050
76,200	-0,090	-0,050
76,250	-0,089	-0,049
76,300	-0,088	-0,048
76,350	-0,087	-0,048
76,400	-0,086	-0,047
76,450	-0,086	-0,047
76,500	-0,085	-0,046
76,550	-0,084	-0,045
76,600	-0,083	-0,045
76,650	-0,082	-0,044
76,700	-0,081	-0,043
76,750	-0,081	-0,043
76,800	-0,081	-0,043
76,850	-0,080	-0,042
76,900	-0,080	-0,042
76,950	-0,079	-0,042
77,000	-0,079	-0,041
77,050	-0,078	-0,041
77,100	-0,078	-0,041
77,150	-0,078	-0,040
77,200	-0,077	-0,040
77,250	-0,077	-0,040
77,300	-0,077	-0,039
77,350	-0,076	-0,039
77,400	-0,076	-0,039
77,450	-0,076	-0,039
77,500	-0,076	-0,039
77,550	-0,075	-0,038
77,600	-0,075	-0,038
77,650	-0,074	-0,037
77,700	-0,074	-0,037
77,750	-0,073	-0,037
77,800	-0,073	-0,036
77,850	-0,072	-0,036
77,900	-0,072	-0,035
77,950	-0,071	-0,035
78,000	-0,071	-0,034
78,050	-0,071	-0,034
78,100	-0,070	-0,034
78,150	-0,070	-0,034
78,200	-0,070	-0,034
78,250	-0,070	-0,034
78,300	-0,070	-0,033
78,350	-0,070	-0,033
78,400	-0,070	-0,033
78,450	-0,070	-0,033
78,500	-0,069	-0,033
78,550	-0,069	-0,033
78,600	-0,069	-0,033
78,650	-0,069	-0,033
78,700	-0,069	-0,033
78,750	-0,068	-0,033
78,800	-0,068	-0,032
78,850	-0,068	-0,032
78,900	-0,067	-0,031
78,950	-0,067	-0,031
79,000	-0,067	-0,031
79,050	-0,066	-0,031
79,100	-0,065	-0,029
79,150	-0,063	-0,029
79,200	-0,062	-0,027
79,250	-0,061	-0,026
79,300	-0,060	-0,025
79,350	-0,060	-0,025
79,400	-0,059	-0,024
79,450	-0,059	-0,023
79,500	-0,057	-0,022
79,550	-0,054	-0,020
79,600	-0,050	-0,016
79,650	-0,047	-0,013
79,700	-0,045	-0,010
79,750	-0,043	-0,008
79,800	-0,042	-0,005
79,850	-0,040	-0,004
79,900	-0,039	-0,001
79,950	-0,038	6,238E-5
80,000	-0,037	0,002
80,050	-0,036	0,003
80,100	-0,035	0,005
80,150	-0,035	0,005
80,200	-0,034	0,007
80,250	-0,033	0,008
80,300	-0,032	0,010
80,350	-0,031	0,010
80,400	-0,031	0,012
80,450	-0,030	0,012
80,500	-0,029	0,014
80,550	-0,028	0,015
80,600	-0,027	0,017
80,650	-0,027	0,017
80,700	-0,026	0,020
80,750	-0,025	0,021
80,800	-0,023	0,023
80,850	-0,022	0,025
80,900	-0,021	0,027
80,950	-0,020	0,028
81,000	-0,019	0,031
81,050	-0,019	0,032
81,100	-0,018	0,034
81,150	-0,017	0,035
81,200	-0,016	0,037
81,250	-0,016	0,038
81,300	-0,015	0,040
81,350	-0,015	0,040
81,400	-0,014	0,042
81,450	-0,013	0,043
81,500	-0,013	0,045
81,550	-0,012	0,046
81,600	-0,011	0,048
81,650	-0,010	0,049
81,700	-0,010	0,051
81,750	-0,009	0,052
81,800	-0,008	0,054
81,850	-0,008	0,055
81,900	-0,008	0,057
81,950	-0,007	0,057
82,000	-0,007	0,059
82,050	-0,006	0,060
82,100	-0,006	0,062
82,150	-0,005	0,063
82,200	-0,005	0,065
82,250	-0,005	0,065
82,300	-0,004	0,066
82,350	-0,004	0,066
82,400	-0,004	0,068
82,450	-0,004	0,068
82,500	-0,003	0,070
82,550	-0,004	0,070
82,600	-0,003	0,071
82,650	-0,002	0,071
82,700	-0,003	0,073
82,750	-0,002	0,072
82,800	-0,002	0,074
82,850	-0,002	0,074
82,900	-0,002	0,075
82,950	-0,002	0,075
83,000	-0,002	0,076
83,050	-0,001	0,076
83,100	-0,001	0,077
83,150	-0,001	0,077
83,200	-0,001	0,078
83,250	-9,449E-4	0,078
83,300	-0,001	0,079
83,350	-0,001	0,078
83,400	-6,227E-4	0,080
83,450	-4,603E-4	0,079
83,500	-4,493E-4	0,080
83,550	-6,593E-4	0,079
83,600	-4,005E-4	0,081
83,650	-3,297E-4	0,080
83,700	-2,516E-4	0,081
83,750	-4,457E-4	0,081
83,800	-2,394E-4	0,082
83,850	3,406E-5	0,081
83,900	-2,308E-4	0,082
83,950	6,458E-5	0,082
84,000	-1,332E-4	0,083
84,050	1,061E-4	0,082
84,100	1,464E-4	0,083
84,150	3,246E-4	0,083
84,200	3,453E-4	0,084
84,250	3,820E-4	0,083
84,300	4,918E-4	0,084
84,350	3,978E-4	0,083
84,400	4,174E-4	0,084
84,450	6,041E-4	0,083
84,500	3,954E-4	0,084
84,550	6,639E-4	0,084
84,600	5,260E-4	0,085
84,650	5,968E-4	0,084
84,700	8,507E-4	0,085
84,750	6,273E-4	0,084
84,800	8,495E-4	0,085
84,850	6,957E-4	0,084
84,900	0,001	0,086
84,950	0,001	0,085
85,000	6,957E-4	0,086
85,050	7,701E-4	0,085
85,100	0,001	0,086
85,150	8,007E-4	0,085
85,200	9,423E-4	0,086
85,250	9,886E-4	0,085
85,300	0,001	0,086
85,350	9,716E-4	0,085
85,400	8,983E-4	0,086
85,450	5,760E-4	0,085
85,500	0,001	0,087
85,550	0,002	0,086
85,600	0,002	0,088
85,650	0,002	0,087
85,700	0,002	0,088
85,750	0,002	0,087
85,800	0,002	0,089
85,850	0,002	0,088
85,900	0,002	0,090
85,950	0,003	0,089
86,000	0,003	0,091
86,050	0,003	0,090
86,100	0,004	0,092
86,150	0,004	0,092
86,200	0,005	0,095
86,250	0,005	0,095
86,300	0,005	0,098
86,350	0,006	0,098
86,400	0,007	0,101
86,450	0,008	0,102
86,500	0,008	0,105
86,550	0,009	0,107
86,600	0,010	0,111
86,650	0,011	0,113
86,700	0,011	0,117
86,750	0,012	0,119
86,800	0,013	0,123
86,850	0,014	0,125
86,900	0,013	0,129
86,950	0,014	0,131
87,000	0,014	0,134
87,050	0,015	0,136
87,100	0,015	0,140
87,150	0,016	0,142
87,200	0,017	0,147
87,250	0,017	0,149
87,300	0,018	0,154
87,350	0,018	0,156
87,400	0,019	0,161
87,450	0,019	0,164
87,500	0,020	0,170
87,550	0,020	0,174
87,600	0,021	0,180
87,650	0,021	0,183
87,700	0,021	0,189
87,750	0,022	0,192
87,800	0,022	0,198
87,850	0,022	0,201
87,900	0,023	0,207
87,950	0,023	0,211
88,000	0,023	0,216
88,050	0,023	0,219
88,100	0,024	0,225
88,150	0,025	0,230
88,200	0,025	0,236
88,250	0,026	0,241
88,300	0,026	0,247
88,350	0,027	0,252
88,400	0,028	0,261
88,450	0,029	0,267
88,500	0,030	0,275
88,550	0,030	0,282
88,600	0,031	0,290
88,650	0,031	0,295
88,700	0,032	0,304
88,750	0,032	0,309
88,800	0,033	0,317
88,850	0,034	0,323
88,900	0,035	0,332
88,950	0,036	0,340
89,000	0,038	0,351
89,050	0,039	0,360
89,100	0,040	0,371
89,150	0,042	0,380
89,200	0,043	0,391
89,250	0,044	0,400
89,300	0,045	0,411
89,350	0,046	0,419
89,400	0,047	0,430
89,450	0,048	0,438
89,500	0,049	0,449
89,550	0,050	0,457
89,600	0,051	0,466
89,650	0,052	0,474
89,700	0,054	0,485
89,750	0,055	0,495
89,800	0,057	0,506
89,850	0,059	0,515
89,900	0,061	0,527
89,950	0,062	0,536
90,000	0,064	0,547
90,050	0,066	0,556
90,100	0,068	0,568
90,150	0,070	0,576
90,200	0,072	0,587
90,250	0,074	0,595
90,300	0,076	0,605
90,350	0,078	0,612
90,400	0,080	0,621
90,450	0,082	0,627
90,500	0,086	0,636
90,550	0,089	0,643
90,600	0,092	0,652
90,650	0,095	0,658
90,700	0,098	0,665
90,750	0,101	0,670
90,800	0,104	0,678
90,850	0,108	0,683
90,900	0,111	0,689
90,950	0,113	0,693
91,000	0,116	0,698
91,050	0,119	0,701
91,100	0,122	0,706
91,150	0,124	0,709
91,200	0,126	0,713
91,250	0,129	0,715
91,300	0,131	0,718
91,350	0,132	0,719
91,400	0,134	0,722
91,450	0,135	0,722
91,500	0,136	0,725
91,550	0,137	0,725
91,600	0,138	0,727
91,650	0,140	0,727
91,700	0,142	0,730
91,750	0,143	0,731
91,800	0,145	0,733
91,850	0,146	0,733
91,900	0,147	0,735
91,950	0,148	0,735
92,000	0,148	0,736
92,050	0,150	0,736
92,100	0,151	0,738
92,150	0,152	0,738
92,200	0,153	0,740
92,250	0,153	0,739
92,300	0,154	0,741
92,350	0,155	0,740
92,400	0,156	0,742
92,450	0,157	0,742
92,500	0,158	0,743
92,550	0,158	0,743
92,600	0,159	0,745
92,650	0,159	0,744
92,700	0,160	0,745
92,750	0,160	0,744
92,800	0,160	0,745
92,850	0,160	0,745
92,900	0,161	0,746
92,950	0,161	0,745
93,000	0,161	0,746
93,050	0,161	0,745
93,100	0,161	0,746
93,150	0,162	0,746
93,200	0,162	0,747
93,250	0,163	0,746
93,300	0,163	0,747
93,350	0,164	0,747
93,400	0,165	0,748
93,450	0,166	0,748
93,500	0,167	0,750
93,550	0,168	0,749
93,600	0,169	0,751
93,650	0,170	0,751
93,700	0,171	0,752
93,750	0,173	0,752
93,800	0,174	0,754
93,850	0,175	0,754
93,900	0,176	0,756
93,950	0,178	0,756
94,000	0,178	0,757
94,050	0,180	0,757
94,100	0,181	0,758
94,150	0,182	0,758
94,200	0,184	0,760
94,250	0,185	0,760
94,300	0,185	0,760
94,350	0,186	0,760
94,400	0,186	0,761
94,450	0,187	0,761
94,500	0,188	0,762
94,550	0,188	0,762
94,600	0,188	0,762
94,650	0,188	0,762
94,700	0,189	0,763
94,750	0,189	0,762
94,800	0,191	0,763
94,850	0,192	0,763
94,900	0,194	0,765
94,950	0,195	0,765
95,000	0,196	0,766
95,050	0,197	0,766
95,100	0,198	0,767
95,150	0,199	0,767
95,200	0,199	0,768
95,250	0,200	0,768
95,300	0,200	0,768
95,350	0,201	0,768
95,400	0,203	0,769
95,450	0,205	0,770
95,500	0,208	0,771
95,550	0,210	0,772
95,600	0,211	0,773
95,650	0,213	0,773
95,700	0,214	0,774
95,750	0,215	0,774
95,800	0,217	0,775
95,850	0,218	0,775
95,900	0,219	0,776
95,950	0,220	0,776
96,000	0,221	0,777
96,050	0,221	0,777
96,100	0,222	0,777
96,150	0,222	0,777
96,200	0,223	0,778
96,250	0,223	0,778
96,300	0,223	0,778
96,350	0,223	0,777
96,400	0,223	0,778
96,450	0,224	0,778
96,500	0,226	0,778
96,550	0,227	0,779
96,600	0,229	0,780
96,650	0,230	0,780
96,700	0,232	0,781
96,750	0,233	0,781
96,800	0,234	0,782
96,850	0,235	0,782
96,900	0,236	0,782
96,950	0,237	0,783
97,000	0,237	0,783
97,050	0,238	0,783
97,100	0,240	0,784
97,150	0,241	0,784
97,200	0,242	0,784
97,250	0,243	0,785
97,300	0,244	0,785
97,350	0,245	0,785
97,400	0,246	0,786
97,450	0,247	0,786
97,500	0,249	0,787
97,550	0,249	0,787
97,600	0,250	0,787
97,650	0,250	0,787
97,700	0,250	0,787
97,750	0,250	0,787
97,800	0,250	0,787
97,850	0,250	0,787
97,900	0,251	0,787
97,950	0,251	0,787
98,000	0,251	0,787
98,050	0,251	0,787
98,100	0,252	0,788
98,150	0,254	0,788
98,200	0,255	0,788
98,250	0,255	0,789
98,300	0,256	0,788
98,350	0,258	0,789
98,400	0,259	0,789
98,450	0,259	0,790
98,500	0,261	0,790
98,550	0,263	0,791
98,600	0,264	0,791
98,650	0,265	0,791
98,700	0,267	0,792
98,750	0,267	0,792
98,800	0,268	0,792
98,850	0,269	0,793
98,900	0,272	0,793
98,950	0,274	0,794
99,000	0,275	0,794
99,050	0,275	0,794
99,100	0,276	0,794
99,150	0,276	0,794
99,200	0,276	0,794
99,250	0,276	0,795
99,300	0,276	0,794
99,350	0,277	0,795
99,400	0,277	0,795
99,450	0,277	0,795
99,500	0,277	0,794
99,550	0,280	0,795
99,600	0,281	0,795
99,650	0,283	0,796
99,700	0,288	0,797
99,750	0,294	0,799
99,800	0,296	0,799
99,850	0,298	0,800
99,900	0,299	0,800
99,950	0,300	0,800
100,000	0,300	0,800
100,050	0,301	0,801
100,100	0,301	0,800
100,150	0,301	0,800
100,200	0,301	0,800
100,250	0,301	0,801
100,300	0,301	0,800
100,350	0,301	0,800
100,400	0,301	0,800
100,450	0,304	0,801
100,500	0,307	0,801
100,550	0,309	0,803
100,600	0,312	0,802
100,650	0,313	0,803
100,700	0,315	0,803
100,750	0,317	0,804
100,800	0,319	0,804
100,850	0,321	0,805
100,900	0,322	0,804
100,950	0,324	0,805
101,000	0,324	0,805
101,050	0,324	0,806
101,100	0,325	0,805
101,150	0,325	0,806
101,200	0,325	0,805
101,250	0,325	0,806
101,300	0,326	0,805
101,350	0,328	0,806
101,400	0,331	0,806
101,450	0,333	0,807
101,500	0,335	0,807
101,550	0,336	0,808
101,600	0,337	0,808
101,650	0,339	0,809
101,700	0,340	0,808
101,750	0,342	0,809
101,800	0,344	0,808
101,850	0,346	0,810
101,900	0,348	0,809
101,950	0,349	0,810
102,000	0,350	0,810
102,050	0,350	0,810
102,100	0,350	0,810
102,150	0,351	0,811
102,200	0,350	0,810
102,250	0,351	0,811
102,300	0,351	0,810
102,350	0,352	0,811
102,400	0,354	0,810
102,450	0,355	0,811
102,500	0,357	0,811
102,550	0,358	0,812
102,600	0,359	0,811
102,650	0,361	0,812
102,700	0,362	0,811
102,750	0,364	0,813
102,800	0,364	0,812
102,850	0,365	0,813
102,900	0,366	0,812
102,950	0,366	0,813
103,000	0,366	0,812
103,050	0,366	0,813
103,100	0,366	0,812
103,150	0,367	0,813
103,200	0,367	0,812
103,250	0,367	0,813
103,300	0,367	0,812
103,350	0,368	0,814
103,400	0,369	0,813
103,450	0,370	0,814
103,500	0,370	0,813
103,550	0,370	0,813
103,600	0,370	0,813
103,650	0,370	0,814
103,700	0,372	0,813
103,750	0,373	0,814
103,800	0,375	0,814
103,850	0,375	0,815
103,900	0,375	0,814
103,950	0,375	0,815
104,000	0,375	0,814
104,050	0,375	0,815
104,100	0,376	0,814
104,150	0,375	0,815
104,200	0,376	0,814
104,250	0,376	0,815
104,300	0,376	0,813
104,350	0,376	0,815
104,400	0,376	0,814
104,450	0,379	0,815
104,500	0,380	0,814
104,550	0,381	0,815
104,600	0,383	0,815
104,650	0,384	0,816
104,700	0,385	0,815
104,750	0,386	0,816
104,800	0,390	0,816
104,850	0,395	0,817
104,900	0,398	0,817
104,950	0,399	0,818
105,000	0,401	0,817
105,050	0,403	0,818
105,100	0,404	0,818
105,150	0,404	0,819
105,200	0,404	0,818
105,250	0,404	0,819
105,300	0,404	0,818
105,350	0,404	0,819
105,400	0,404	0,818
105,450	0,405	0,819
105,500	0,406	0,818
105,550	0,410	0,820
105,600	0,413	0,819
105,650	0,414	0,820
105,700	0,414	0,819
105,750	0,415	0,820
105,800	0,415	0,819
105,850	0,415	0,821
105,900	0,415	0,819
105,950	0,415	0,820
106,000	0,415	0,819
106,050	0,415	0,820
106,100	0,416	0,819
106,150	0,415	0,820
106,200	0,416	0,819
106,250	0,416	0,820
106,300	0,416	0,820
106,350	0,417	0,820
106,400	0,425	0,820
106,450	0,431	0,822
106,500	0,436	0,822
106,550	0,439	0,823
106,600	0,441	0,823
106,650	0,443	0,824
106,700	0,443	0,823
106,750	0,444	0,824
106,800	0,444	0,823
106,850	0,444	0,824
106,900	0,444	0,823
106,950	0,445	0,824
107,000	0,445	0,824
107,050	0,445	0,824
107,100	0,445	0,823
107,150	0,449	0,825
107,200	0,452	0,824
107,250	0,455	0,825
107,300	0,458	0,824
107,350	0,461	0,826
107,400	0,464	0,825
107,450	0,466	0,826
107,500	0,467	0,826
107,550	0,467	0,827
107,600	0,467	0,826
107,650	0,467	0,827
107,700	0,468	0,826
107,750	0,468	0,827
107,800	0,468	0,826
107,850	0,468	0,827
107,900	0,468	0,826
107,950	0,470	0,827
108,000	0,474	0,826
108,050	0,475	0,828
108,100	0,477	0,827
108,150	0,478	0,828
108,200	0,479	0,827
108,250	0,480	0,828
108,300	0,481	0,827
108,350	0,482	0,828
108,400	0,482	0,827
108,450	0,482	0,828
108,500	0,483	0,828
108,550	0,482	0,828
108,600	0,483	0,828
108,650	0,483	0,829
108,700	0,483	0,827
108,750	0,487	0,829
108,800	0,489	0,828
108,850	0,490	0,829
108,900	0,490	0,828
108,950	0,490	0,829
109,000	0,493	0,828
109,050	0,494	0,829
109,100	0,495	0,829
109,150	0,495	0,830
109,200	0,495	0,829
109,250	0,495	0,830
109,300	0,495	0,829
109,350	0,496	0,830
109,400	0,496	0,829
109,450	0,496	0,830
109,500	0,495	0,829
109,550	0,495	0,830
109,600	0,496	0,829
109,650	0,498	0,830
109,700	0,503	0,830
109,750	0,507	0,831
109,800	0,507	0,830
109,850	0,508	0,831
109,900	0,508	0,830
109,950	0,508	0,831
110,000	0,508	0,830
110,050	0,508	0,831
110,100	0,508	0,830
110,150	0,508	0,831
110,200	0,511	0,830
110,250	0,516	0,832
110,300	0,518	0,831
110,350	0,519	0,832
110,400	0,519	0,831
110,450	0,519	0,832
110,500	0,519	0,831
110,550	0,520	0,832
110,600	0,520	0,831
110,650	0,519	0,832
110,700	0,520	0,832
110,750	0,520	0,832
110,800	0,520	0,831
110,850	0,520	0,832
110,900	0,520	0,831
110,950	0,520	0,832
111,000	0,520	0,831
111,050	0,524	0,832
111,100	0,529	0,832
111,150	0,531	0,833
111,200	0,531	0,832
111,250	0,532	0,833
111,300	0,535	0,833
111,350	0,537	0,834
111,400	0,539	0,833
111,450	0,540	0,834
111,500	0,540	0,833
111,550	0,540	0,834
111,600	0,541	0,833
111,650	0,541	0,834
111,700	0,541	0,833
111,750	0,542	0,834
111,800	0,545	0,834
111,850	0,549	0,835
111,900	0,554	0,835
111,950	0,557	0,835
112,000	0,559	0,835
112,050	0,560	0,836
112,100	0,562	0,835
112,150	0,563	0,836
112,200	0,564	0,836
112,250	0,565	0,836
112,300	0,565	0,836
112,350	0,565	0,836
112,400	0,565	0,836
112,450	0,565	0,836
112,500	0,565	0,836
112,550	0,566	0,837
112,600	0,567	0,836
112,650	0,569	0,837
112,700	0,570	0,836
112,750	0,571	0,837
112,800	0,573	0,836
112,850	0,575	0,837
112,900	0,577	0,837
112,950	0,578	0,837
113,000	0,579	0,837
113,050	0,579	0,837
113,100	0,579	0,837
113,150	0,579	0,837
113,200	0,580	0,837
113,250	0,580	0,838
113,300	0,580	0,837
113,350	0,581	0,838
113,400	0,583	0,837
113,450	0,584	0,838
113,500	0,585	0,837
113,550	0,587	0,838
113,600	0,588	0,838
113,650	0,589	0,838
113,700	0,589	0,838
113,750	0,589	0,838
113,800	0,589	0,838
113,850	0,591	0,838
113,900	0,592	0,838
113,950	0,593	0,838
114,000	0,594	0,839
114,050	0,594	0,839
114,100	0,595	0,839
114,150	0,595	0,839
114,200	0,595	0,839
114,250	0,595	0,839
114,300	0,595	0,839
114,350	0,595	0,839
114,400	0,595	0,839
114,450	0,595	0,839
114,500	0,595	0,839
114,550	0,595	0,839
114,600	0,595	0,839
114,650	0,596	0,838
114,700	0,597	0,839
114,750	0,597	0,839
114,800	0,597	0,839
114,850	0,597	0,839
114,900	0,598	0,839
114,950	0,598	0,839
115,000	0,598	0,839
115,050	0,599	0,839
115,100	0,600	0,839
115,150	0,601	0,839
115,200	0,601	0,839
115,250	0,602	0,839
115,300	0,604	0,839
115,350	0,605	0,839
115,400	0,605	0,840
115,450	0,607	0,839
115,500	0,609	0,840
115,550	0,610	0,840
115,600	0,610	0,840
115,650	0,611	0,840
115,700	0,612	0,840
115,750	0,613	0,840
115,800	0,613	0,840
115,850	0,615	0,840
115,900	0,617	0,840
115,950	0,618	0,840
116,000	0,618	0,841
116,050	0,618	0,840
116,100	0,618	0,840
116,150	0,620	0,841
116,200	0,620	0,841
116,250	0,621	0,841
116,300	0,624	0,841
116,350	0,628	0,841
116,400	0,631	0,842
116,450	0,632	0,841
116,500	0,632	0,842
116,550	0,633	0,841
116,600	0,633	0,842
116,650	0,633	0,842
116,700	0,633	0,842
116,750	0,633	0,841
116,800	0,633	0,842
116,850	0,633	0,842
116,900	0,633	0,842
116,950	0,633	0,841
117,000	0,633	0,842
117,050	0,633	0,841
117,100	0,633	0,842
117,150	0,636	0,841
117,200	0,642	0,843
117,250	0,646	0,842
117,300	0,647	0,843
117,350	0,647	0,842
117,400	0,647	0,843
117,450	0,649	0,843
117,500	0,650	0,843
117,550	0,652	0,843
117,600	0,653	0,844
117,650	0,655	0,843
117,700	0,657	0,844
117,750	0,657	0,843
117,800	0,657	0,844
117,850	0,657	0,843
117,900	0,657	0,844
117,950	0,657	0,843
118,000	0,657	0,844
118,050	0,658	0,844
118,100	0,657	0,844
118,150	0,658	0,843
118,200	0,663	0,844
118,250	0,666	0,844
118,300	0,667	0,845
118,350	0,669	0,844
118,400	0,671	0,845
118,450	0,672	0,844
118,500	0,673	0,845
118,550	0,673	0,844
118,600	0,673	0,845
118,650	0,674	0,844
118,700	0,674	0,845
118,750	0,674	0,844
118,800	0,674	0,845
118,850	0,674	0,845
118,900	0,674	0,845
118,950	0,674	0,844
119,000	0,674	0,845
119,050	0,675	0,844
119,100	0,676	0,845
119,150	0,679	0,845
119,200	0,683	0,846
119,250	0,685	0,845
119,300	0,686	0,846
119,350	0,688	0,845
119,400	0,689	0,846
119,450	0,690	0,845
119,500	0,691	0,847
119,550	0,691	0,846
119,600	0,691	0,847
119,650	0,691	0,846
119,700	0,691	0,846
119,750	0,691	0,846
119,800	0,691	0,847
119,850	0,692	0,846
119,900	0,692	0,847
119,950	0,694	0,846
120,000	0,696	0,847
120,050	0,699	0,846
120,100	0,701	0,847
120,150	0,703	0,847
120,200	0,704	0,848
120,250	0,704	0,847
120,300	0,705	0,848
120,350	0,706	0,847
120,400	0,707	0,848
120,450	0,709	0,847
120,500	0,709	0,848
120,550	0,710	0,847
120,600	0,712	0,848
120,650	0,712	0,847
120,700	0,713	0,848
120,750	0,714	0,847
120,800	0,717	0,848
120,850	0,719	0,847
120,900	0,719	0,849
120,950	0,719	0,847
121,000	0,720	0,849
121,050	0,719	0,847
121,100	0,719	0,849
121,150	0,719	0,848
121,200	0,719	0,849
121,250	0,719	0,848
121,300	0,720	0,849
121,350	0,720	0,848
121,400	0,724	0,849
121,450	0,730	0,848
121,500	0,732	0,850
121,550	0,733	0,849
121,600	0,733	0,849
121,650	0,733	0,848
121,700	0,734	0,850
121,750	0,735	0,849
121,800	0,736	0,850
121,850	0,736	0,849
121,900	0,737	0,850
121,950	0,742	0,849
122,000	0,746	0,850
122,050	0,748	0,849
122,100	0,748	0,850
122,150	0,748	0,849
122,200	0,748	0,850
122,250	0,748	0,849
122,300	0,748	0,851
122,350	0,748	0,849
122,400	0,748	0,850
122,450	0,749	0,850
122,500	0,752	0,851
122,550	0,755	0,850
122,600	0,758	0,851
122,650	0,761	0,850
122,700	0,763	0,851
122,750	0,764	0,850
122,800	0,764	0,852
122,850	0,764	0,850
122,900	0,764	0,852
122,950	0,764	0,850
123,000	0,765	0,852
123,050	0,770	0,851
123,100	0,775	0,852
123,150	0,777	0,851
123,200	0,779	0,852
123,250	0,781	0,851
123,300	0,782	0,853
123,350	0,782	0,852
123,400	0,783	0,853
123,450	0,783	0,852
123,500	0,784	0,853
123,550	0,784	0,852
123,600	0,784	0,853
123,650	0,786	0,852
123,700	0,791	0,853
123,750	0,794	0,852
123,800	0,798	0,854
123,850	0,800	0,853
123,900	0,801	0,854
123,950	0,801	0,853
124,000	0,801	0,854
124,050	0,801	0,853
124,100	0,801	0,854
124,150	0,801	0,853
124,200	0,801	0,854
124,250	0,801	0,853
124,300	0,801	0,854
124,350	0,802	0,853
124,400	0,804	0,854
124,450	0,807	0,853
124,500	0,810	0,854
124,550	0,813	0,854
124,600	0,816	0,855
124,650	0,817	0,854
124,700	0,818	0,855
124,750	0,821	0,854
124,800	0,822	0,855
124,850	0,822	0,854
124,900	0,823	0,855
124,950	0,823	0,854
125,000	0,823	0,855
125,050	0,822	0,854
125,100	0,822	0,855
125,150	0,823	0,854
125,200	0,823	0,855
125,250	0,826	0,854
125,300	0,829	0,855
125,350	0,830	0,855
125,400	0,831	0,856
125,450	0,831	0,855
125,500	0,831	0,856
125,550	0,833	0,855
125,600	0,833	0,856
125,650	0,833	0,855
125,700	0,834	0,856
125,750	0,836	0,855
125,800	0,837	0,856
125,850	0,837	0,855
125,900	0,837	0,856
125,950	0,836	0,855
126,000	0,837	0,856
126,050	0,836	0,855
126,100	0,837	0,856
126,150	0,837	0,855
126,200	0,837	0,856
126,250	0,837	0,855
126,300	0,837	0,856
126,350	0,837	0,855
126,400	0,837	0,856
126,450	0,837	0,855
126,500	0,840	0,856
126,550	0,843	0,855
126,600	0,844	0,856
126,650	0,846	0,856
126,700	0,851	0,857
126,750	0,853	0,856
126,800	0,853	0,857
126,850	0,853	0,856
126,900	0,855	0,857
126,950	0,860	0,856
127,000	0,863	0,857
127,050	0,863	0,857
127,100	0,863	0,857
127,150	0,863	0,856
127,200	0,864	0,858
127,250	0,863	0,857
127,300	0,863	0,857
127,350	0,863	0,857
127,400	0,863	0,857
127,450	0,864	0,857
127,500	0,870	0,857
127,550	0,877	0,857
127,600	0,882	0,858
127,650	0,885	0,858
127,700	0,888	0,859
127,750	0,890	0,858
127,800	0,892	0,859
127,850	0,892	0,859
127,900	0,892	0,859
127,950	0,892	0,858
128,000	0,892	0,859
128,050	0,892	0,858
128,100	0,892	0,859
128,150	0,893	0,858
128,200	0,897	0,859
128,250	0,903	0,859
128,300	0,908	0,860
128,350	0,910	0,859
128,400	0,911	0,860
128,450	0,913	0,860
128,500	0,914	0,860
128,550	0,916	0,860
128,600	0,918	0,860
128,650	0,918	0,860
128,700	0,918	0,860
128,750	0,918	0,860
128,800	0,918	0,860
128,850	0,918	0,860
128,900	0,918	0,860
128,950	0,918	0,860
129,000	0,919	0,860
129,050	0,922	0,860
129,100	0,924	0,860
129,150	0,926	0,861
129,200	0,928	0,861
129,250	0,929	0,860
129,300	0,930	0,861
129,350	0,931	0,860
129,400	0,932	0,861
129,450	0,933	0,861
129,500	0,933	0,861
129,550	0,933	0,861
129,600	0,933	0,861
129,650	0,932	0,861
129,700	0,933	0,861
129,750	0,933	0,861
129,800	0,932	0,861
129,850	0,934	0,861
129,900	0,937	0,861
129,950	0,938	0,861
130,000	0,939	0,861
130,050	0,940	0,861
130,100	0,941	0,862
130,150	0,942	0,861
130,200	0,942	0,861
130,250	0,942	0,861
130,300	0,943	0,861
130,350	0,943	0,861
130,400	0,943	0,861
130,450	0,943	0,861
130,500	0,943	0,862
130,550	0,944	0,862
130,600	0,946	0,862
130,650	0,946	0,862
130,700	0,947	0,862
130,750	0,947	0,862
130,800	0,947	0,862
130,850	0,947	0,862
130,900	0,947	0,861
130,950	0,947	0,862
131,000	0,947	0,862
131,050	0,947	0,862
131,100	0,947	0,862
131,150	0,947	0,862
131,200	0,947	0,862
131,250	0,947	0,862
131,300	0,947	0,861
131,350	0,947	0,862
131,400	0,947	0,862
131,450	0,947	0,862
131,500	0,947	0,861
131,550	0,951	0,862
131,600	0,953	0,862
131,650	0,954	0,862
131,700	0,956	0,862
131,750	0,959	0,862
131,800	0,960	0,862
131,850	0,960	0,862
131,900	0,960	0,862
131,950	0,960	0,863
132,000	0,960	0,862
132,050	0,961	0,863
132,100	0,963	0,862
132,150	0,964	0,863
132,200	0,964	0,862
132,250	0,964	0,863
132,300	0,966	0,862
132,350	0,970	0,863
132,400	0,971	0,863
132,450	0,971	0,863
132,500	0,971	0,862
132,550	0,971	0,863
132,600	0,971	0,863
132,650	0,971	0,863
132,700	0,971	0,863
132,750	0,971	0,863
132,800	0,971	0,863
132,850	0,971	0,863
132,900	0,971	0,863
132,950	0,971	0,863
133,000	0,971	0,863
133,050	0,971	0,863
133,100	0,971	0,863
133,150	0,971	0,863
133,200	0,971	0,863
133,250	0,970	0,863
133,300	0,974	0,863
133,350	0,984	0,864
133,400	0,989	0,864
133,450	0,991	0,864
133,500	0,991	0,864
133,550	0,991	0,864
133,600	0,992	0,864
133,650	0,993	0,864
133,700	0,994	0,864
133,750	0,995	0,865
133,800	0,996	0,864
133,850	0,997	0,864
133,900	0,999	0,864
133,950	1,001	0,865
134,000	1,002	0,864
134,050	1,002	0,865
134,100	1,002	0,864
134,150	1,002	0,865
134,200	1,002	0,864
134,250	1,002	0,865
134,300	1,002	0,864
134,350	1,002	0,865
134,400	1,002	0,864
134,450	1,002	0,865
134,500	1,002	0,864
134,550	1,002	0,865
134,600	1,002	0,864
134,650	1,002	0,865
134,700	1,002	0,864
134,750	1,002	0,865
134,800	1,002	0,864
134,850	1,002	0,865
134,900	1,002	0,864
134,950	1,002	0,865
135,000	1,002	0,864
135,050	1,002	0,865
135,100	1,002	0,864
135,150	1,002	0,865
135,200	1,002	0,864
135,250	1,002	0,865
135,300	1,002	0,864
135,350	1,002	0,865
135,400	1,002	0,864
135,450	1,002	0,865
135,500	1,002	0,864
135,550	1,002	0,865
135,600	1,002	0,864
135,650	1,002	0,865
135,700	1,002	0,864
135,750	1,002	0,865
135,800	1,002	0,864
135,850	1,002	0,865
135,900	1,002	0,864
135,950	1,002	0,865
136,000	1,002	0,864
136,050	1,002	0,865
136,100	1,002	0,864
136,150	1,002	0,865
136,200	1,002	0,864
136,250	1,002	0,865
136,300	1,002	0,864
136,350	1,002	0,865
136,400	1,002	0,864
136,450	1,002	0,865
136,500	1,002	0,864
136,550	1,002	0,865
136,600	1,002	0,864
136,650	1,002	0,865
136,700	1,002	0,864
136,750	1,003	0,865
136,800	1,002	0,864
136,850	1,002	0,865
136,900	1,002	0,864
136,950	1,002	0,865
137,000	1,002	0,864
137,050	1,002	0,865
137,100	1,002	0,864
137,150	1,002	0,865
137,200	1,002	0,864
137,250	1,002	0,865
137,300	1,002	0,864
137,350	1,002	0,865
137,400	1,002	0,864
137,450	1,002	0,865
137,500	1,002	0,864
137,550	1,002	0,865
137,600	1,002	0,864
137,650	1,002	0,865
137,700	1,002	0,864
137,750	1,002	0,865
137,800	1,002	0,864
137,850	1,002	0,865
137,900	1,002	0,864
137,950	1,002	0,865
138,000	1,002	0,864
138,050	1,002	0,865
138,100	1,002	0,864
138,150	1,002	0,865
138,200	1,002	0,864
138,250	1,002	0,865
138,300	1,002	0,864
138,350	1,002	0,865
138,400	1,002	0,864
138,450	1,002	0,865
138,500	1,002	0,864
138,550	1,002	0,865
138,600	1,002	0,864
138,650	1,002	0,865
138,700	1,002	0,864
138,750	1,002	0,865
138,800	1,002	0,864
138,850	1,002	0,865
138,900	1,002	0,864
138,950	1,002	0,865
139,000	1,002	0,864
139,050	1,002	0,865
139,100	1,002	0,864
139,150	1,002	0,865
139,200	1,002	0,864
139,250	1,002	0,865
139,300	1,002	0,864
139,350	1,002	0,865
139,400	1,002	0,864
139,450	1,002	0,865
139,500	1,002	0,864
139,550	1,002	0,865
139,600	1,002	0,864
139,650	1,002	0,865
139,700	1,002	0,864
139,750	1,002	0,865
139,800	1,002	0,864
139,850	1,002	0,865
139,900	1,002	0,864
139,950	1,002	0,865
140,000	1,002	0,864
140,050	1,002	0,865
140,100	1,002	0,864
140,150	1,002	0,865
140,200	1,002	0,864
140,250	1,002	0,865
140,300	1,002	0,864
140,350	1,002	0,865
140,400	1,002	0,864
140,450	1,002	0,865
140,500	1,002	0,864
140,550	1,002	0,865
140,600	1,002	0,864
140,650	1,002	0,865
140,700	1,002	0,864
140,750	1,002	0,865
140,800	1,002	0,864
140,850	1,002	0,865
140,900	1,002	0,864
140,950	1,002	0,865
141,000	1,002	0,864
141,050	1,002	0,865
141,100	1,002	0,864
141,150	1,002	0,865
141,200	1,002	0,864
141,250	1,002	0,865
141,300	1,002	0,864
141,350	1,002	0,865
141,400	1,002	0,864
141,450	1,002	0,865
141,500	1,002	0,864
141,550	1,002	0,865
141,600	1,002	0,864
141,650	1,002	0,865
141,700	1,002	0,864
141,750	1,002	0,865
141,800	1,002	0,864
141,850	1,002	0,865
141,900	1,002	0,864
141,950	1,002	0,865
142,000	1,002	0,864
142,050	1,002	0,865
142,100	1,002	0,864
142,150	1,002	0,865
142,200	1,002	0,864
142,250	1,002	0,865
142,300	1,002	0,864
142,350	1,002	0,865
142,400	1,002	0,864
142,450	1,002	0,865
142,500	1,002	0,864
142,550	1,002	0,865
142,600	1,002	0,864
142,650	1,002	0,865
142,700	1,002	0,864
142,750	1,002	0,865
142,800	1,002	0,864
142,850	1,002	0,865
142,900	1,002	0,864
142,950	1,002	0,865
143,000	1,002	0,864
143,050	1,002	0,865
143,100	1,002	0,864
143,150	1,002	0,865
143,200	1,002	0,864
143,250	1,002	0,865
143,300	1,002	0,864
143,350	1,002	0,865
143,400	1,002	0,864
143,450	1,002	0,865
143,500	1,002	0,864
143,550	1,002	0,865
143,600	1,002	0,864
143,650	1,002	0,865
143,700	1,002	0,864
143,750	1,002	0,865
143,800	1,002	0,864
143,850	1,002	0,865
143,900	1,002	0,864
143,950	1,002	0,865
144,000	1,002	0,864
144,050	1,002	0,865
144,100	1,002	0,864
144,150	1,002	0,865
144,200	1,002	0,864
144,250	1,002	0,865
144,300	1,002	0,864
144,350	1,002	0,865
144,400	1,002	0,864
144,450	1,002	0,865
144,500	1,002	0,864
144,550	1,002	0,865
144,600	1,002	0,864
144,650	1,002	0,865
144,700	1,002	0,864
144,750	1,002	0,865
144,800	1,002	0,864
144,850	1,002	0,865
144,900	1,002	0,864
144,950	1,002	0,865
145,000	1,002	0,864
145,050	1,002	0,865
145,100	1,002	0,864
145,150	1,002	0,865
145,200	1,002	0,864
145,250	1,002	0,865
145,300	1,002	0,864
145,350	1,002	0,865
145,400	1,002	0,864
145,450	1,002	0,865
145,500	1,002	0,864
145,550	1,002	0,865
145,600	1,002	0,864
145,650	1,002	0,865
145,700	1,002	0,864
145,750	1,002	0,865
145,800	1,002	0,864
145,850	1,002	0,865
145,900	1,002	0,864
145,950	1,002	0,865
146,000	1,002	0,864
146,050	1,002	0,865
146,100	1,002	0,864
146,150	1,002	0,865
146,200	1,002	0,864
146,250	1,002	0,865
146,300	1,002	0,864
146,350	1,002	0,865
146,400	1,002	0,864
146,450	1,002	0,865
146,500	1,002	0,864
146,550	1,002	0,865
146,600	1,002	0,864
146,650	1,002	0,865
146,700	1,002	0,864
146,750	1,002	0,865
146,800	1,002	0,864
146,850	1,002	0,865
146,900	1,002	0,864
146,950	1,002	0,865
147,000	1,002	0,864
147,050	1,002	0,865
147,100	1,002	0,864
147,150	1,002	0,865
147,200	1,002	0,864
147,250	1,002	0,865
147,300	1,002	0,864
147,350	1,002	0,865
147,400	1,002	0,864
147,450	1,002	0,865
147,500	1,002	0,864
147,550	1,002	0,865
147,600	1,002	0,864
147,650	1,002	0,865
147,700	1,002	0,864
147,750	1,002	0,865
147,800	1,002	0,864
147,850	1,002	0,865
147,900	1,002	0,864
147,950	1,002	0,865
148,000	1,002	0,864
148,050	1,002	0,865
148,100	1,002	0,864
148,150	1,002	0,865
148,200	1,002	0,864
148,250	1,002	0,865
148,300	1,002	0,864
148,350	1,002	0,865
148,400	1,002	0,864
148,450	1,002	0,865
148,500	1,002	0,864
148,550	1,002	0,865
148,600	1,002	0,864
148,650	1,002	0,865
148,700	1,002	0,864
148,750	1,002	0,865
148,800	1,002	0,864
148,850	1,002	0,865
148,900	1,002	0,864
148,950	1,002	0,865
149,000	1,002	0,864
149,050	1,002	0,865
149,100	1,002	0,864
149,150	1,002	0,865
149,200	1,002	0,864
149,250	1,002	0,865
149,300	1,001	0,864
149,350	1,002	0,865
149,400	1,002	0,864
149,450	1,002	0,865
149,500	1,000	0,864
149,550	0,994	0,864
149,600	0,987	0,863
149,650	0,985	0,864
149,700	0,985	0,863
149,750	0,985	0,864
149,800	0,983	0,863
149,850	0,982	0,864
149,900	0,982	0,863
149,950	0,982	0,864
150,000	0,982	0,863
150,050	0,980	0,864
150,100	0,980	0,863
150,150	0,978	0,864
150,200	0,978	0,863
150,250	0,978	0,864
150,300	0,978	0,863
150,350	0,977	0,864
150,400	0,975	0,863
150,450	0,975	0,864
150,500	0,975	0,863
150,550	0,975	0,864
150,600	0,975	0,863
150,650	0,974	0,864
150,700	0,973	0,863
150,750	0,972	0,864
150,800	0,972	0,863
150,850	0,972	0,864
150,900	0,972	0,863
150,950	0,972	0,864
151,000	0,972	0,863
151,050	0,972	0,863
151,100	0,972	0,863
151,150	0,972	0,864
151,200	0,972	0,863
151,250	0,972	0,864
151,300	0,971	0,863
151,350	0,969	0,864
151,400	0,968	0,862
151,450	0,969	0,864
151,500	0,969	0,862
151,550	0,969	0,864
151,600	0,968	0,862
151,650	0,970	0,864
151,700	0,968	0,863
151,750	0,966	0,863
151,800	0,966	0,863
151,850	0,964	0,863
151,900	0,962	0,862
151,950	0,962	0,863
152,000	0,961	0,862
152,050	0,961	0,863
152,100	0,961	0,862
152,150	0,962	0,863
152,200	0,961	0,862
152,250	0,962	0,863
152,300	0,960	0,862
152,350	0,957	0,863
152,400	0,957	0,862
152,450	0,957	0,863
152,500	0,957	0,862
152,550	0,957	0,863
152,600	0,957	0,862
152,650	0,957	0,863
152,700	0,957	0,862
152,750	0,957	0,863
152,800	0,957	0,862
152,850	0,957	0,863
152,900	0,957	0,862
152,950	0,957	0,863
153,000	0,957	0,862
153,050	0,957	0,863
153,100	0,957	0,862
153,150	0,957	0,863
153,200	0,957	0,862
153,250	0,957	0,863
153,300	0,957	0,862
153,350	0,955	0,863
153,400	0,952	0,862
153,450	0,952	0,863
153,500	0,952	0,862
153,550	0,952	0,863
153,600	0,951	0,862
153,650	0,950	0,863
153,700	0,949	0,862
153,750	0,946	0,862
153,800	0,943	0,862
153,850	0,941	0,862
153,900	0,940	0,861
153,950	0,940	0,862
154,000	0,940	0,861
154,050	0,940	0,862
154,100	0,940	0,862
154,150	0,940	0,862
154,200	0,940	0,862
154,250	0,940	0,862
154,300	0,940	0,862
154,350	0,940	0,862
154,400	0,940	0,861
154,450	0,940	0,862
154,500	0,939	0,862
154,550	0,934	0,862
154,600	0,932	0,861
154,650	0,932	0,862
154,700	0,931	0,861
154,750	0,929	0,862
154,800	0,929	0,861
154,850	0,929	0,862
154,900	0,927	0,861
154,950	0,921	0,861
155,000	0,918	0,861
155,050	0,917	0,861
155,100	0,917	0,861
155,150	0,917	0,861
155,200	0,917	0,860
155,250	0,917	0,861
155,300	0,917	0,861
155,350	0,917	0,861
155,400	0,914	0,861
155,450	0,910	0,861
155,500	0,906	0,860
155,550	0,903	0,861
155,600	0,902	0,860
155,650	0,901	0,860
155,700	0,901	0,860
155,750	0,900	0,860
155,800	0,898	0,860
155,850	0,896	0,860
155,900	0,895	0,860
155,950	0,894	0,860
156,000	0,894	0,860
156,050	0,895	0,860
156,100	0,897	0,860
156,150	0,889	0,860
156,200	0,886	0,859
156,250	0,885	0,860
156,300	0,885	0,859
156,350	0,885	0,860
156,400	0,884	0,859
156,450	0,880	0,859
156,500	0,877	0,859
156,550	0,876	0,859
156,600	0,876	0,859
156,650	0,876	0,859
156,700	0,876	0,858
156,750	0,876	0,859
156,800	0,876	0,859
156,850	0,876	0,859
156,900	0,876	0,859
156,950	0,876	0,859
157,000	0,876	0,858
157,050	0,876	0,859
157,100	0,876	0,859
157,150	0,875	0,859
157,200	0,873	0,859
157,250	0,872	0,859
157,300	0,872	0,859
157,350	0,872	0,859
157,400	0,869	0,859
157,450	0,864	0,859
157,500	0,863	0,858
157,550	0,862	0,858
157,600	0,862	0,858
157,650	0,862	0,859
157,700	0,862	0,858
157,750	0,859	0,858
157,800	0,854	0,858
157,850	0,853	0,858
157,900	0,853	0,858
157,950	0,853	0,858
158,000	0,853	0,858
158,050	0,853	0,858
158,100	0,853	0,858
158,150	0,853	0,858
158,200	0,853	0,858
158,250	0,853	0,858
158,300	0,853	0,858
158,350	0,853	0,858
158,400	0,853	0,858
158,450	0,853	0,858
158,500	0,853	0,858
158,550	0,853	0,858
158,600	0,853	0,858
158,650	0,853	0,858
158,700	0,853	0,858
158,750	0,853	0,858
158,800	0,853	0,858
158,850	0,853	0,858
158,900	0,849	0,858
158,950	0,846	0,858
159,000	0,846	0,857
159,050	0,846	0,858
159,100	0,846	0,857
159,150	0,843	0,858
159,200	0,841	0,857
159,250	0,841	0,857
159,300	0,841	0,857
159,350	0,839	0,857
159,400	0,830	0,857
159,450	0,822	0,857
159,500	0,819	0,856
159,550	0,818	0,856
159,600	0,817	0,856
159,650	0,814	0,856
159,700	0,811	0,856
159,750	0,810	0,856
159,800	0,810	0,856
159,850	0,810	0,856
159,900	0,810	0,856
159,950	0,810	0,856
160,000	0,810	0,856
160,050	0,810	0,856
160,100	0,810	0,856
160,150	0,807	0,855
160,200	0,800	0,855
160,250	0,795	0,855
160,300	0,792	0,855
160,350	0,790	0,855
160,400	0,788	0,855
160,450	0,787	0,855
160,500	0,787	0,855
160,550	0,789	0,855
160,600	0,789	0,855
160,650	0,789	0,855
160,700	0,789	0,855
160,750	0,789	0,855
160,800	0,789	0,855
160,850	0,789	0,855
160,900	0,789	0,855
160,950	0,787	0,855
161,000	0,786	0,855
161,050	0,785	0,855
161,100	0,785	0,855
161,150	0,782	0,855
161,200	0,781	0,854
161,250	0,781	0,854
161,300	0,780	0,855
161,350	0,778	0,854
161,400	0,778	0,854
161,450	0,778	0,854
161,500	0,778	0,855
161,550	0,775	0,854
161,600	0,772	0,854
161,650	0,769	0,854
161,700	0,769	0,854
161,750	0,769	0,854
161,800	0,769	0,854
161,850	0,769	0,854
161,900	0,769	0,854
161,950	0,769	0,854
162,000	0,769	0,854
162,050	0,769	0,854
162,100	0,769	0,854
162,150	0,769	0,854
162,200	0,769	0,854
162,250	0,769	0,854
162,300	0,769	0,854
162,350	0,769	0,854
162,400	0,769	0,854
162,450	0,767	0,854
162,500	0,763	0,854
162,550	0,761	0,854
162,600	0,761	0,854
162,650	0,761	0,853
162,700	0,760	0,853
162,750	0,760	0,853
162,800	0,761	0,854
162,850	0,761	0,853
162,900	0,758	0,854
162,950	0,751	0,853
163,000	0,746	0,853
163,050	0,743	0,853
163,100	0,742	0,853
163,150	0,741	0,852
163,200	0,741	0,853
163,250	0,742	0,853
163,300	0,741	0,853
163,350	0,738	0,852
163,400	0,736	0,853
163,450	0,736	0,852
163,500	0,736	0,853
163,550	0,736	0,852
163,600	0,734	0,853
163,650	0,727	0,851
163,700	0,725	0,852
163,750	0,725	0,852
163,800	0,724	0,852
163,850	0,724	0,851
163,900	0,724	0,852
163,950	0,724	0,852
164,000	0,724	0,852
164,050	0,724	0,851
164,100	0,724	0,852
164,150	0,724	0,852
164,200	0,724	0,852
164,250	0,723	0,851
164,300	0,719	0,852
164,350	0,718	0,851
164,400	0,717	0,852
164,450	0,715	0,851
164,500	0,712	0,851
164,550	0,711	0,851
164,600	0,711	0,851
164,650	0,711	0,851
164,700	0,711	0,851
164,750	0,711	0,851
164,800	0,711	0,851
164,850	0,711	0,851
164,900	0,711	0,851
164,950	0,708	0,850
165,000	0,705	0,851
165,050	0,703	0,850
165,100	0,702	0,851
165,150	0,702	0,850
165,200	0,701	0,851
165,250	0,701	0,850
165,300	0,699	0,851
165,350	0,698	0,850
165,400	0,696	0,851
165,450	0,696	0,850
165,500	0,695	0,851
165,550	0,695	0,850
165,600	0,695	0,851
165,650	0,695	0,850
165,700	0,695	0,851
165,750	0,696	0,850
165,800	0,695	0,850
165,850	0,692	0,850
165,900	0,691	0,850
165,950	0,691	0,850
166,000	0,691	0,850
166,050	0,690	0,850
166,100	0,690	0,850
166,150	0,691	0,850
166,200	0,691	0,851
166,250	0,691	0,850
166,300	0,690	0,850
166,350	0,690	0,849
166,400	0,690	0,850
166,450	0,688	0,849
166,500	0,684	0,850
166,550	0,683	0,849
166,600	0,681	0,850
166,650	0,677	0,849
166,700	0,676	0,850
166,750	0,676	0,849
166,800	0,676	0,850
166,850	0,676	0,849
166,900	0,676	0,849
166,950	0,675	0,849
167,000	0,674	0,849
167,050	0,672	0,849
167,100	0,672	0,849
167,150	0,672	0,849
167,200	0,672	0,849
167,250	0,672	0,849
167,300	0,672	0,849
167,350	0,672	0,849
167,400	0,672	0,849
167,450	0,672	0,849
167,500	0,672	0,850
167,550	0,672	0,848
167,600	0,672	0,849
167,650	0,670	0,849
167,700	0,667	0,849
167,750	0,665	0,848
167,800	0,665	0,849
167,850	0,665	0,848
167,900	0,665	0,849
167,950	0,664	0,848
168,000	0,662	0,849
168,050	0,662	0,848
168,100	0,662	0,849
168,150	0,662	0,848
168,200	0,662	0,849
168,250	0,662	0,848
168,300	0,661	0,849
168,350	0,662	0,848
168,400	0,661	0,849
168,450	0,662	0,848
168,500	0,661	0,849
168,550	0,660	0,848
168,600	0,658	0,849
168,650	0,656	0,848
168,700	0,656	0,849
168,750	0,656	0,847
168,800	0,656	0,849
168,850	0,655	0,847
168,900	0,651	0,848
168,950	0,649	0,848
169,000	0,649	0,848
169,050	0,649	0,847
169,100	0,649	0,849
169,150	0,649	0,847
169,200	0,649	0,848
169,250	0,649	0,847
169,300	0,649	0,848
169,350	0,649	0,847
169,400	0,645	0,848
169,450	0,644	0,847
169,500	0,643	0,848
169,550	0,641	0,847
169,600	0,640	0,848
169,650	0,638	0,847
169,700	0,637	0,848
169,750	0,636	0,847
169,800	0,635	0,847
169,850	0,633	0,847
169,900	0,633	0,847
169,950	0,631	0,846
170,000	0,629	0,847
170,050	0,626	0,846
170,100	0,625	0,847
170,150	0,625	0,846
170,200	0,625	0,847
170,250	0,625	0,846
170,300	0,625	0,847
170,350	0,626	0,846
170,400	0,625	0,847
170,450	0,625	0,846
170,500	0,625	0,847
170,550	0,625	0,846
170,600	0,625	0,847
170,650	0,625	0,846
170,700	0,625	0,847
170,750	0,625	0,846
170,800	0,625	0,847
170,850	0,625	0,846
170,900	0,620	0,847
170,950	0,618	0,845
171,000	0,617	0,847
171,050	0,617	0,845
171,100	0,617	0,847
171,150	0,616	0,845
171,200	0,613	0,846
171,250	0,612	0,845
171,300	0,611	0,846
171,350	0,610	0,845
171,400	0,606	0,846
171,450	0,602	0,844
171,500	0,601	0,845
171,550	0,601	0,844
171,600	0,601	0,846
171,650	0,601	0,844
171,700	0,600	0,845
171,750	0,599	0,844
171,800	0,598	0,845
171,850	0,598	0,844
171,900	0,598	0,845
171,950	0,598	0,844
172,000	0,598	0,845
172,050	0,598	0,844
172,100	0,598	0,845
172,150	0,596	0,844
172,200	0,594	0,845
172,250	0,594	0,844
172,300	0,594	0,845
172,350	0,594	0,844
172,400	0,594	0,845
172,450	0,594	0,844
172,500	0,594	0,845
172,550	0,594	0,844
172,600	0,594	0,845
172,650	0,594	0,844
172,700	0,594	0,845
172,750	0,594	0,844
172,800	0,594	0,845
172,850	0,594	0,844
172,900	0,594	0,845
172,950	0,593	0,844
173,000	0,594	0,845
173,050	0,594	0,844
173,100	0,594	0,845
173,150	0,594	0,844
173,200	0,594	0,845
173,250	0,594	0,844
173,300	0,594	0,845
173,350	0,594	0,844
173,400	0,594	0,845
173,450	0,594	0,844
173,500	0,594	0,845
173,550	0,594	0,844
173,600	0,594	0,845
173,650	0,594	0,844
173,700	0,594	0,845
173,750	0,594	0,844
173,800	0,594	0,845
173,850	0,594	0,844
173,900	0,594	0,845
173,950	0,593	0,844
174,000	0,588	0,845
174,050	0,580	0,843
174,100	0,575	0,844
174,150	0,574	0,843
174,200	0,573	0,843
174,250	0,571	0,843
174,300	0,570	0,844
174,350	0,568	0,842
174,400	0,567	0,843
174,450	0,567	0,842
174,500	0,566	0,843
174,550	0,565	0,842
174,600	0,564	0,843
174,650	0,564	0,842
174,700	0,564	0,843
174,750	0,563	0,842
174,800	0,563	0,843
174,850	0,563	0,842
174,900	0,562	0,843
174,950	0,562	0,842
175,000	0,562	0,843
175,050	0,563	0,842
175,100	0,563	0,843
175,150	0,562	0,842
175,200	0,560	0,843
175,250	0,556	0,842
175,300	0,555	0,843
175,350	0,554	0,841
175,400	0,551	0,842
175,450	0,550	0,841
175,500	0,550	0,842
175,550	0,547	0,841
175,600	0,543	0,842
175,650	0,541	0,841
175,700	0,541	0,842
175,750	0,541	0,841
175,800	0,541	0,842
175,850	0,541	0,841
175,900	0,541	0,842
175,950	0,541	0,841
176,000	0,541	0,842
176,050	0,540	0,841
176,100	0,539	0,841
176,150	0,539	0,841
176,200	0,539	0,842
176,250	0,539	0,841
176,300	0,538	0,841
176,350	0,537	0,841
176,400	0,536	0,842
176,450	0,536	0,840
176,500	0,535	0,841
176,550	0,534	0,840
176,600	0,533	0,841
176,650	0,534	0,840
176,700	0,534	0,841
176,750	0,534	0,840
176,800	0,534	0,841
176,850	0,533	0,840
176,900	0,534	0,841
176,950	0,533	0,840
177,000	0,534	0,841
177,050	0,534	0,840
177,100	0,534	0,841
177,150	0,533	0,840
177,200	0,534	0,841
177,250	0,533	0,840
177,300	0,532	0,841
177,350	0,531	0,840
177,400	0,530	0,841
177,450	0,528	0,840
177,500	0,526	0,841
177,550	0,525	0,840
177,600	0,524	0,841
177,650	0,523	0,839
177,700	0,521	0,841
177,750	0,521	0,839
177,800	0,519	0,840
177,850	0,517	0,839
177,900	0,517	0,840
177,950	0,516	0,839
178,000	0,516	0,840
178,050	0,516	0,839
178,100	0,513	0,840
178,150	0,511	0,839
178,200	0,510	0,840
178,250	0,510	0,839
178,300	0,510	0,840
178,350	0,510	0,839
178,400	0,510	0,840
178,450	0,510	0,839
178,500	0,510	0,840
178,550	0,510	0,839
178,600	0,510	0,840
178,650	0,510	0,839
178,700	0,509	0,840
178,750	0,510	0,839
178,800	0,510	0,840
178,850	0,508	0,838
178,900	0,505	0,839
178,950	0,504	0,838
179,000	0,504	0,839
179,050	0,503	0,838
179,100	0,499	0,839
179,150	0,495	0,837
179,200	0,492	0,838
179,250	0,492	0,838
179,300	0,492	0,838
179,350	0,491	0,837
179,400	0,491	0,838
179,450	0,492	0,838
179,500	0,492	0,839
179,550	0,492	0,838
179,600	0,491	0,838
179,650	0,490	0,838
179,700	0,486	0,838
179,750	0,482	0,837
179,800	0,480	0,837
179,850	0,479	0,837
179,900	0,478	0,838
179,950	0,478	0,837
180,000	0,477	0,837
180,050	0,475	0,836
180,100	0,474	0,837
180,150	0,473	0,836
180,200	0,473	0,837
180,250	0,473	0,836
180,300	0,473	0,837
180,350	0,473	0,836
180,400	0,473	0,837
180,450	0,473	0,836
180,500	0,473	0,837
180,550	0,473	0,836
180,600	0,472	0,837
180,650	0,466	0,836
180,700	0,457	0,836
180,750	0,452	0,835
180,800	0,451	0,835
180,850	0,449	0,835
180,900	0,446	0,835
180,950	0,444	0,834
181,000	0,444	0,835
181,050	0,444	0,835
181,100	0,444	0,835
181,150	0,444	0,834
181,200	0,444	0,835
181,250	0,444	0,834
181,300	0,444	0,835
181,350	0,444	0,834
181,400	0,444	0,835
181,450	0,444	0,834
181,500	0,444	0,835
181,550	0,444	0,834
181,600	0,444	0,835
181,650	0,444	0,834
181,700	0,442	0,835
181,750	0,438	0,834
181,800	0,434	0,834
181,850	0,432	0,833
181,900	0,431	0,834
181,950	0,430	0,833
182,000	0,430	0,834
182,050	0,429	0,833
182,100	0,428	0,834
182,150	0,426	0,833
182,200	0,421	0,833
182,250	0,417	0,832
182,300	0,416	0,833
182,350	0,415	0,832
182,400	0,415	0,833
182,450	0,415	0,832
182,500	0,415	0,832
182,550	0,415	0,832
182,600	0,415	0,832
182,650	0,415	0,832
182,700	0,415	0,833
182,750	0,415	0,832
182,800	0,415	0,832
182,850	0,414	0,832
182,900	0,412	0,832
182,950	0,411	0,832
183,000	0,411	0,832
183,050	0,410	0,832
183,100	0,407	0,832
183,150	0,402	0,831
183,200	0,401	0,831
183,250	0,401	0,831
183,300	0,401	0,831
183,350	0,401	0,831
183,400	0,401	0,831
183,450	0,401	0,831
183,500	0,401	0,831
183,550	0,401	0,831
183,600	0,397	0,831
183,650	0,394	0,830
183,700	0,394	0,831
183,750	0,394	0,830
183,800	0,394	0,831
183,850	0,393	0,830
183,900	0,393	0,831
183,950	0,393	0,830
184,000	0,394	0,831
184,050	0,394	0,830
184,100	0,393	0,831
184,150	0,393	0,830
184,200	0,394	0,831
184,250	0,393	0,830
184,300	0,394	0,831
184,350	0,392	0,830
184,400	0,389	0,831
184,450	0,387	0,830
184,500	0,386	0,830
184,550	0,386	0,830
184,600	0,385	0,830
184,650	0,380	0,830
184,700	0,375	0,829
184,750	0,373	0,829
184,800	0,373	0,829
184,850	0,373	0,829
184,900	0,372	0,829
184,950	0,371	0,828
185,000	0,369	0,829
185,050	0,369	0,828
185,100	0,368	0,828
185,150	0,368	0,828
185,200	0,368	0,829
185,250	0,368	0,828
185,300	0,369	0,829
185,350	0,368	0,828
185,400	0,368	0,828
185,450	0,368	0,828
185,500	0,368	0,828
185,550	0,368	0,828
185,600	0,366	0,828
185,650	0,360	0,828
185,700	0,355	0,827
185,750	0,354	0,827
185,800	0,353	0,827
185,850	0,353	0,827
185,900	0,352	0,827
185,950	0,351	0,827
186,000	0,349	0,826
186,050	0,346	0,826
186,100	0,344	0,826
186,150	0,342	0,826
186,200	0,339	0,826
186,250	0,337	0,825
186,300	0,336	0,825
186,350	0,333	0,825
186,400	0,329	0,825
186,450	0,327	0,824
186,500	0,326	0,824
186,550	0,326	0,824
186,600	0,326	0,824
186,650	0,326	0,824
186,700	0,326	0,824
186,750	0,326	0,824
186,800	0,326	0,824
186,850	0,326	0,824
186,900	0,326	0,824
186,950	0,326	0,824
187,000	0,326	0,824
187,050	0,323	0,824
187,100	0,319	0,824
187,150	0,316	0,823
187,200	0,314	0,823
187,250	0,311	0,823
187,300	0,310	0,822
187,350	0,309	0,822
187,400	0,309	0,822
187,450	0,309	0,822
187,500	0,307	0,822
187,550	0,304	0,822
187,600	0,300	0,821
187,650	0,299	0,821
187,700	0,298	0,821
187,750	0,298	0,821
187,800	0,298	0,821
187,850	0,298	0,821
187,900	0,298	0,821
187,950	0,298	0,821
188,000	0,298	0,821
188,050	0,298	0,821
188,100	0,298	0,821
188,150	0,298	0,821
188,200	0,298	0,821
188,250	0,298	0,821
188,300	0,298	0,821
188,350	0,293	0,821
188,400	0,290	0,820
188,450	0,289	0,820
188,500	0,289	0,820
188,550	0,289	0,820
188,600	0,289	0,820
188,650	0,288	0,820
188,700	0,286	0,820
188,750	0,286	0,820
188,800	0,285	0,819
188,850	0,283	0,819
188,900	0,282	0,819
188,950	0,281	0,819
189,000	0,281	0,819
189,050	0,280	0,819
189,100	0,278	0,818
189,150	0,276	0,818
189,200	0,276	0,818
189,250	0,276	0,819
189,300	0,275	0,818
189,350	0,275	0,818
189,400	0,275	0,818
189,450	0,275	0,818
189,500	0,275	0,818
189,550	0,275	0,818
189,600	0,275	0,818
189,650	0,275	0,818
189,700	0,275	0,818
189,750	0,275	0,818
189,800	0,275	0,818
189,850	0,269	0,818
189,900	0,264	0,817
189,950	0,262	0,816
190,000	0,261	0,816
190,050	0,261	0,816
190,100	0,260	0,816
190,150	0,260	0,816
190,200	0,259	0,816
190,250	0,257	0,816
190,300	0,256	0,816
190,350	0,254	0,816
190,400	0,252	0,815
190,450	0,250	0,815
190,500	0,247	0,814
190,550	0,246	0,814
190,600	0,245	0,814
190,650	0,244	0,814
190,700	0,245	0,814
190,750	0,245	0,814
190,800	0,244	0,814
190,850	0,244	0,814
190,900	0,244	0,814
190,950	0,243	0,814
191,000	0,239	0,813
191,050	0,234	0,812
191,100	0,230	0,812
191,150	0,228	0,812
191,200	0,226	0,811
191,250	0,226	0,811
191,300	0,226	0,811
191,350	0,224	0,811
191,400	0,220	0,810
191,450	0,218	0,810
191,500	0,217	0,809
191,550	0,216	0,809
191,600	0,216	0,809
191,650	0,216	0,809
191,700	0,215	0,809
191,750	0,215	0,809
191,800	0,215	0,809
191,850	0,216	0,809
191,900	0,216	0,809
191,950	0,216	0,809
192,000	0,215	0,809
192,050	0,214	0,809
192,100	0,211	0,808
192,150	0,210	0,808
192,200	0,209	0,808
192,250	0,207	0,808
192,300	0,204	0,807
192,350	0,203	0,807
192,400	0,198	0,806
192,450	0,195	0,805
192,500	0,193	0,805
192,550	0,192	0,805
192,600	0,192	0,804
192,650	0,191	0,804
192,700	0,189	0,804
192,750	0,188	0,804
192,800	0,187	0,804
192,850	0,187	0,804
192,900	0,184	0,803
192,950	0,182	0,803
193,000	0,178	0,801
193,050	0,175	0,801
193,100	0,174	0,800
193,150	0,173	0,800
193,200	0,173	0,800
193,250	0,172	0,800
193,300	0,172	0,799
193,350	0,172	0,800
193,400	0,172	0,799
193,450	0,172	0,800
193,500	0,172	0,800
193,550	0,171	0,800
193,600	0,168	0,799
193,650	0,166	0,799
193,700	0,165	0,798
193,750	0,164	0,798
193,800	0,162	0,797
193,850	0,161	0,797
193,900	0,158	0,796
193,950	0,154	0,795
194,000	0,151	0,794
194,050	0,149	0,793
194,100	0,147	0,793
194,150	0,146	0,792
194,200	0,146	0,792
194,250	0,145	0,792
194,300	0,145	0,791
194,350	0,145	0,792
194,400	0,144	0,791
194,450	0,144	0,792
194,500	0,139	0,790
194,550	0,133	0,789
194,600	0,128	0,786
194,650	0,124	0,785
194,700	0,122	0,783
194,750	0,120	0,782
194,800	0,118	0,781
194,850	0,117	0,781
194,900	0,116	0,780
194,950	0,115	0,780
195,000	0,113	0,779
195,050	0,111	0,778
195,100	0,110	0,777
195,150	0,109	0,777
195,200	0,108	0,776
195,250	0,108	0,776
195,300	0,108	0,775
195,350	0,107	0,775
195,400	0,107	0,775
195,450	0,107	0,775
195,500	0,106	0,774
195,550	0,104	0,774
195,600	0,102	0,773
195,650	0,100	0,772
195,700	0,097	0,770
195,750	0,095	0,769
195,800	0,092	0,767
195,850	0,091	0,766
195,900	0,088	0,764
195,950	0,086	0,763
196,000	0,085	0,761
196,050	0,083	0,760
196,100	0,082	0,759
196,150	0,082	0,759
196,200	0,081	0,758
196,250	0,080	0,758
196,300	0,079	0,757
196,350	0,079	0,757
196,400	0,079	0,756
196,450	0,079	0,757
196,500	0,078	0,756
196,550	0,076	0,755
196,600	0,074	0,753
196,650	0,072	0,752
196,700	0,071	0,750
196,750	0,070	0,750
196,800	0,067	0,747
196,850	0,064	0,746
196,900	0,061	0,742
196,950	0,058	0,740
197,000	0,057	0,737
197,050	0,055	0,736
197,100	0,054	0,734
197,150	0,053	0,733
197,200	0,052	0,731
197,250	0,051	0,730
197,300	0,050	0,728
197,350	0,049	0,728
197,400	0,049	0,727
197,450	0,048	0,727
197,500	0,048	0,725
197,550	0,047	0,725
197,600	0,047	0,724
197,650	0,046	0,724
197,700	0,044	0,722
197,750	0,040	0,719
197,800	0,037	0,715
197,850	0,034	0,712
197,900	0,031	0,707
197,950	0,028	0,704
198,000	0,025	0,699
198,050	0,023	0,695
198,100	0,022	0,691
198,150	0,020	0,689
198,200	0,019	0,685
198,250	0,018	0,682
198,300	0,017	0,679
198,350	0,015	0,677
198,400	0,015	0,675
198,450	0,014	0,673
198,500	0,013	0,670
198,550	0,012	0,669
198,600	0,011	0,666
198,650	0,011	0,665
198,700	0,010	0,663
198,750	0,010	0,662
198,800	0,009	0,659
198,850	0,008	0,659
198,900	0,008	0,657
198,950	0,008	0,656
199,000	0,007	0,654
199,050	0,007	0,654
199,100	0,007	0,652
199,150	0,006	0,652
199,200	0,006	0,650
199,250	0,006	0,650
199,300	0,006	0,648
199,350	0,005	0,648
199,400	0,005	0,646
199,450	0,005	0,646
199,500	0,005	0,645
199,550	0,004	0,645
199,600	0,004	0,643
199,650	0,004	0,643
199,700	0,004	0,642
199,750	0,004	0,642
199,800	0,003	0,641
199,850	0,004	0,641
199,900	0,003	0,640
199,950	0,003	0,640
200,000	0,003	0,639
200,050	0,003	0,639
200,100	0,003	0,638
200,150	0,003	0,638
200,200	0,003	0,637
200,250	0,003	0,637
200,300	0,002	0,636
200,350	0,003	0,637
200,400	0,002	0,636
200,450	0,002	0,636
200,500	0,002	0,635
200,550	0,002	0,636
200,600	0,002	0,634
200,650	0,002	0,635
200,700	0,002	0,634
200,750	0,002	0,634
200,800	0,002	0,633
200,850	0,002	0,634
200,900	0,002	0,633
200,950	0,002	0,633
201,000	0,002	0,633
201,050	0,002	0,633
201,100	0,001	0,632
201,150	0,001	0,633
201,200	0,002	0,632
201,250	0,001	0,632
201,300	0,001	0,632
201,350	0,001	0,632
201,400	0,001	0,631
201,450	0,001	0,632
201,500	9,960E-4	0,631
201,550	0,001	0,632
201,600	0,001	0,631
201,650	0,001	0,632
201,700	9,349E-4	0,630
201,750	8,300E-4	0,631
201,800	0,001	0,630
201,850	0,001	0,631
201,900	9,142E-4	0,630
201,950	0,001	0,631
202,000	9,069E-4	0,630
202,050	0,001	0,631
202,100	8,251E-4	0,630
202,150	0,001	0,631
202,200	6,993E-4	0,629
202,250	8,861E-4	0,630
202,300	9,484E-4	0,630
202,350	9,752E-4	0,630
202,400	0,001	0,630
202,450	0,001	0,630
202,500	8,190E-4	0,629
202,550	8,959E-4	0,630
202,600	6,774E-4	0,629
202,650	0,001	0,630
202,700	0,001	0,630
202,750	8,446E-4	0,630
202,800	0,001	0,629
202,850	8,153E-4	0,630
202,900	0,001	0,629
202,950	0,001	0,630
203,000	0,001	0,629
203,050	0,001	0,630
203,100	0,001	0,629
203,150	0,001	0,630
203,200	0,001	0,629
203,250	6,151E-4	0,630
203,300	2,001E-4	0,629
203,350	-3,615E-4	0,629
203,400	-9,291E-4	0,627
203,450	-0,002	0,626
203,500	-0,002	0,624
203,550	-0,003	0,624
203,600	-0,003	0,622
203,650	-0,004	0,621
203,700	-0,004	0,619
203,750	-0,005	0,618
203,800	-0,005	0,615
203,850	-0,006	0,614
203,900	-0,006	0,611
203,950	-0,007	0,610
204,000	-0,008	0,607
204,050	-0,008	0,605
204,100	-0,009	0,602
204,150	-0,009	0,601
204,200	-0,009	0,598
204,250	-0,010	0,597
204,300	-0,010	0,594
204,350	-0,011	0,593
204,400	-0,011	0,590
204,450	-0,011	0,589
204,500	-0,012	0,586
204,550	-0,012	0,584
204,600	-0,013	0,581
204,650	-0,013	0,579
204,700	-0,013	0,576
204,750	-0,014	0,574
204,800	-0,014	0,571
204,850	-0,015	0,569
204,900	-0,015	0,565
204,950	-0,016	0,562
205,000	-0,016	0,559
205,050	-0,016	0,557
205,100	-0,016	0,553
205,150	-0,017	0,551
205,200	-0,017	0,547
205,250	-0,018	0,545
205,300	-0,018	0,541
205,350	-0,018	0,537
205,400	-0,019	0,533
205,450	-0,019	0,531
205,500	-0,019	0,526
205,550	-0,020	0,523
205,600	-0,020	0,518
205,650	-0,020	0,515
205,700	-0,020	0,511
205,750	-0,021	0,507
205,800	-0,021	0,503
205,850	-0,022	0,499
205,900	-0,022	0,494
205,950	-0,022	0,491
206,000	-0,023	0,485
206,050	-0,023	0,482
206,100	-0,023	0,476
206,150	-0,024	0,472
206,200	-0,024	0,467
206,250	-0,024	0,463
206,300	-0,025	0,456
206,350	-0,025	0,452
206,400	-0,026	0,446
206,450	-0,026	0,442
206,500	-0,027	0,435
206,550	-0,027	0,431
206,600	-0,027	0,425
206,650	-0,027	0,421
206,700	-0,028	0,415
206,750	-0,028	0,411
206,800	-0,028	0,406
206,850	-0,028	0,402
206,900	-0,029	0,396
206,950	-0,029	0,393
207,000	-0,030	0,386
207,050	-0,030	0,382
207,100	-0,031	0,375
207,150	-0,031	0,371
207,200	-0,032	0,364
207,250	-0,033	0,358
207,300	-0,034	0,350
207,350	-0,035	0,344
207,400	-0,036	0,336
207,450	-0,037	0,329
207,500	-0,038	0,319
207,550	-0,039	0,313
207,600	-0,040	0,304
207,650	-0,041	0,298
207,700	-0,041	0,290
207,750	-0,042	0,283
207,800	-0,043	0,275
207,850	-0,043	0,269
207,900	-0,044	0,260
207,950	-0,045	0,254
208,000	-0,046	0,246
208,050	-0,047	0,239
208,100	-0,049	0,229
208,150	-0,050	0,222
208,200	-0,052	0,212
208,250	-0,053	0,204
208,300	-0,055	0,194
208,350	-0,057	0,186
208,400	-0,058	0,177
208,450	-0,060	0,169
208,500	-0,062	0,158
208,550	-0,063	0,150
208,600	-0,065	0,141
208,650	-0,067	0,134
208,700	-0,068	0,125
208,750	-0,071	0,118
208,800	-0,074	0,109
208,850	-0,077	0,101
208,900	-0,079	0,092
208,950	-0,082	0,085
209,000	-0,085	0,076
209,050	-0,088	0,069
209,100	-0,091	0,061
209,150	-0,094	0,055
209,200	-0,098	0,047
209,250	-0,101	0,042
209,300	-0,104	0,034
209,350	-0,107	0,030
209,400	-0,110	0,024
209,450	-0,112	0,021
209,500	-0,115	0,016
209,550	-0,117	0,013
209,600	-0,119	0,009
209,650	-0,121	0,007
209,700	-0,124	0,003
209,750	-0,127	9,376E-4
209,800	-0,130	-0,003
209,850	-0,132	-0,004
209,900	-0,134	-0,008
209,950	-0,137	-0,010
210,000	-0,139	-0,013
210,050	-0,141	-0,014
210,100	-0,142	-0,016
210,150	-0,144	-0,017
210,200	-0,146	-0,020
210,250	-0,147	-0,020
210,300	-0,148	-0,022
210,350	-0,151	-0,022
210,400	-0,152	-0,025
210,450	-0,153	-0,025
210,500	-0,154	-0,027
210,550	-0,156	-0,027
210,600	-0,156	-0,028
210,650	-0,157	-0,028
210,700	-0,157	-0,029
210,750	-0,157	-0,028
210,800	-0,158	-0,030
210,850	-0,158	-0,029
210,900	-0,158	-0,030
210,950	-0,159	-0,030
211,000	-0,159	-0,031
211,050	-0,159	-0,030
211,100	-0,160	-0,031
211,150	-0,163	-0,031
211,200	-0,164	-0,033
211,250	-0,166	-0,034
211,300	-0,167	-0,036
211,350	-0,167	-0,035
211,400	-0,168	-0,037
211,450	-0,169	-0,036
211,500	-0,169	-0,038
211,550	-0,169	-0,036
211,600	-0,170	-0,038
211,650	-0,170	-0,037
211,700	-0,172	-0,039
211,750	-0,173	-0,038
211,800	-0,174	-0,040
211,850	-0,175	-0,039
211,900	-0,175	-0,041
211,950	-0,176	-0,040
212,000	-0,176	-0,042
212,050	-0,177	-0,041
212,100	-0,177	-0,042
212,150	-0,177	-0,041
212,200	-0,177	-0,042
212,250	-0,178	-0,042
212,300	-0,178	-0,043
212,350	-0,178	-0,041
212,400	-0,180	-0,043
212,450	-0,184	-0,044
212,500	-0,187	-0,047
212,550	-0,190	-0,047
212,600	-0,192	-0,050
212,650	-0,194	-0,050
212,700	-0,197	-0,052
212,750	-0,200	-0,052
212,800	-0,202	-0,054
212,850	-0,203	-0,054
212,900	-0,204	-0,056
212,950	-0,205	-0,055
213,000	-0,206	-0,057
213,050	-0,206	-0,056
213,100	-0,206	-0,057
213,150	-0,207	-0,056
213,200	-0,207	-0,057
213,250	-0,208	-0,057
213,300	-0,210	-0,058
213,350	-0,212	-0,058
213,400	-0,214	-0,059
213,450	-0,215	-0,059
213,500	-0,218	-0,061
213,550	-0,219	-0,061
213,600	-0,221	-0,063
213,650	-0,223	-0,062
213,700	-0,225	-0,064
213,750	-0,226	-0,063
213,800	-0,228	-0,065
213,850	-0,229	-0,065
213,900	-0,230	-0,066
213,950	-0,231	-0,065
214,000	-0,232	-0,067
214,050	-0,233	-0,066
214,100	-0,233	-0,067
214,150	-0,234	-0,066
214,200	-0,235	-0,068
214,250	-0,235	-0,067
214,300	-0,235	-0,068
214,350	-0,235	-0,067
214,400	-0,236	-0,068
214,450	-0,236	-0,067
214,500	-0,236	-0,068
214,550	-0,236	-0,067
214,600	-0,235	-0,068
214,650	-0,236	-0,067
214,700	-0,239	-0,069
214,750	-0,241	-0,068
214,800	-0,243	-0,070
214,850	-0,245	-0,070
214,900	-0,246	-0,071
214,950	-0,248	-0,071
215,000	-0,250	-0,072
215,050	-0,251	-0,072
215,100	-0,252	-0,073
215,150	-0,253	-0,072
215,200	-0,254	-0,074
215,250	-0,255	-0,073
215,300	-0,255	-0,074
215,350	-0,256	-0,073
215,400	-0,257	-0,074
215,450	-0,257	-0,074
215,500	-0,258	-0,075
215,550	-0,258	-0,074
215,600	-0,258	-0,075
215,650	-0,258	-0,074
215,700	-0,258	-0,075
215,750	-0,258	-0,074
215,800	-0,258	-0,075
215,850	-0,258	-0,074
215,900	-0,258	-0,075
215,950	-0,259	-0,074
216,000	-0,259	-0,075
216,050	-0,261	-0,075
216,100	-0,263	-0,076
216,150	-0,264	-0,075
216,200	-0,264	-0,077
216,250	-0,265	-0,076
216,300	-0,266	-0,077
216,350	-0,268	-0,077
216,400	-0,269	-0,078
216,450	-0,271	-0,077
216,500	-0,273	-0,079
216,550	-0,274	-0,078
216,600	-0,275	-0,079
216,650	-0,276	-0,078
216,700	-0,277	-0,080
216,750	-0,278	-0,079
216,800	-0,278	-0,080
216,850	-0,278	-0,079
216,900	-0,278	-0,080
216,950	-0,278	-0,079
217,000	-0,278	-0,080
217,050	-0,278	-0,079
217,100	-0,278	-0,080
217,150	-0,278	-0,079
217,200	-0,278	-0,080
217,250	-0,280	-0,080
217,300	-0,285	-0,082
217,350	-0,287	-0,081
217,400	-0,289	-0,083
217,450	-0,290	-0,082
217,500	-0,290	-0,083
217,550	-0,291	-0,082
217,600	-0,293	-0,084
217,650	-0,295	-0,083
217,700	-0,296	-0,085
217,750	-0,297	-0,084
217,800	-0,298	-0,085
217,850	-0,299	-0,084
217,900	-0,300	-0,085
217,950	-0,300	-0,084
218,000	-0,300	-0,085
218,050	-0,300	-0,084
218,100	-0,301	-0,086
218,150	-0,302	-0,085
218,200	-0,302	-0,086
218,250	-0,303	-0,085
218,300	-0,304	-0,086
218,350	-0,304	-0,085
218,400	-0,304	-0,086
218,450	-0,304	-0,085
218,500	-0,304	-0,086
218,550	-0,304	-0,085
218,600	-0,304	-0,087
218,650	-0,304	-0,085
218,700	-0,304	-0,086
218,750	-0,304	-0,085
218,800	-0,304	-0,086
218,850	-0,304	-0,085
218,900	-0,306	-0,087
218,950	-0,310	-0,086
219,000	-0,314	-0,088
219,050	-0,317	-0,088
219,100	-0,319	-0,089
219,150	-0,320	-0,089
219,200	-0,322	-0,090
219,250	-0,323	-0,089
219,300	-0,323	-0,090
219,350	-0,323	-0,089
219,400	-0,323	-0,090
219,450	-0,323	-0,089
219,500	-0,324	-0,090
219,550	-0,323	-0,089
219,600	-0,323	-0,090
219,650	-0,324	-0,089
219,700	-0,327	-0,091
219,750	-0,330	-0,090
219,800	-0,334	-0,092
219,850	-0,336	-0,091
219,900	-0,338	-0,093
219,950	-0,340	-0,092
220,000	-0,341	-0,094
220,050	-0,342	-0,092
220,100	-0,343	-0,094
220,150	-0,343	-0,093
220,200	-0,344	-0,094
220,250	-0,345	-0,093
220,300	-0,345	-0,094
220,350	-0,346	-0,093
220,400	-0,346	-0,095
220,450	-0,347	-0,094
220,500	-0,346	-0,095
220,550	-0,346	-0,093
220,600	-0,347	-0,095
220,650	-0,346	-0,093
220,700	-0,347	-0,095
220,750	-0,347	-0,094
220,800	-0,347	-0,094
220,850	-0,350	-0,094
220,900	-0,352	-0,095
220,950	-0,354	-0,095
221,000	-0,357	-0,097
221,050	-0,359	-0,095
221,100	-0,360	-0,097
221,150	-0,363	-0,096
221,200	-0,364	-0,098
221,250	-0,366	-0,096
221,300	-0,367	-0,098
221,350	-0,367	-0,097
221,400	-0,368	-0,098
221,450	-0,368	-0,097
221,500	-0,368	-0,098
221,550	-0,368	-0,097
221,600	-0,368	-0,098
221,650	-0,368	-0,097
221,700	-0,368	-0,098
221,750	-0,368	-0,097
221,800	-0,368	-0,098
221,850	-0,370	-0,097
221,900	-0,372	-0,099
221,950	-0,373	-0,098
222,000	-0,374	-0,099
222,050	-0,376	-0,098
222,100	-0,378	-0,099
222,150	-0,380	-0,099
222,200	-0,381	-0,100
222,250	-0,383	-0,099
222,300	-0,384	-0,101
222,350	-0,385	-0,100
222,400	-0,385	-0,101
222,450	-0,385	-0,100
222,500	-0,385	-0,101
222,550	-0,385	-0,100
222,600	-0,385	-0,101
222,650	-0,385	-0,100
222,700	-0,385	-0,101
222,750	-0,385	-0,100
222,800	-0,385	-0,101
222,850	-0,385	-0,100
222,900	-0,385	-0,101
222,950	-0,385	-0,100
223,000	-0,385	-0,101
223,050	-0,385	-0,099
223,100	-0,387	-0,101
223,150	-0,391	-0,100
223,200	-0,392	-0,102
223,250	-0,393	-0,101
223,300	-0,394	-0,102
223,350	-0,397	-0,101
223,400	-0,402	-0,103
223,450	-0,406	-0,102
223,500	-0,410	-0,104
223,550	-0,413	-0,103
223,600	-0,414	-0,105
223,650	-0,414	-0,103
223,700	-0,414	-0,105
223,750	-0,414	-0,104
223,800	-0,415	-0,105
223,850	-0,415	-0,104
223,900	-0,415	-0,105
223,950	-0,415	-0,104
224,000	-0,415	-0,105
224,050	-0,420	-0,104
224,100	-0,428	-0,106
224,150	-0,434	-0,106
224,200	-0,437	-0,108
224,250	-0,440	-0,107
224,300	-0,441	-0,108
224,350	-0,444	-0,107
224,400	-0,445	-0,109
224,450	-0,446	-0,108
224,500	-0,446	-0,109
224,550	-0,446	-0,108
224,600	-0,446	-0,109
224,650	-0,446	-0,108
224,700	-0,447	-0,109
224,750	-0,448	-0,108
224,800	-0,452	-0,109
224,850	-0,455	-0,109
224,900	-0,460	-0,110
224,950	-0,464	-0,109
225,000	-0,467	-0,111
225,050	-0,470	-0,110
225,100	-0,472	-0,112
225,150	-0,472	-0,111
225,200	-0,472	-0,112
225,250	-0,472	-0,111
225,300	-0,472	-0,112
225,350	-0,472	-0,111
225,400	-0,472	-0,112
225,450	-0,473	-0,111
225,500	-0,473	-0,112
225,550	-0,473	-0,111
225,600	-0,473	-0,112
225,650	-0,473	-0,111
225,700	-0,476	-0,112
225,750	-0,480	-0,111
225,800	-0,482	-0,113
225,850	-0,484	-0,112
225,900	-0,486	-0,113
225,950	-0,488	-0,112
226,000	-0,488	-0,113
226,050	-0,491	-0,113
226,100	-0,495	-0,114
226,150	-0,496	-0,113
226,200	-0,496	-0,114
226,250	-0,496	-0,113
226,300	-0,497	-0,115
226,350	-0,497	-0,113
226,400	-0,497	-0,115
226,450	-0,497	-0,113
226,500	-0,497	-0,115
226,550	-0,497	-0,113
226,600	-0,497	-0,115
226,650	-0,497	-0,114
226,700	-0,497	-0,115
226,750	-0,499	-0,114
226,800	-0,504	-0,115
226,850	-0,508	-0,114
226,900	-0,509	-0,115
226,950	-0,509	-0,115
227,000	-0,510	-0,116
227,050	-0,515	-0,115
227,100	-0,518	-0,116
227,150	-0,519	-0,115
227,200	-0,519	-0,117
227,250	-0,520	-0,116
227,300	-0,520	-0,117
227,350	-0,520	-0,116
227,400	-0,520	-0,117
227,450	-0,519	-0,116
227,500	-0,520	-0,117
227,550	-0,520	-0,116
227,600	-0,526	-0,117
227,650	-0,535	-0,117
227,700	-0,542	-0,119
227,750	-0,544	-0,118
227,800	-0,545	-0,119
227,850	-0,546	-0,118
227,900	-0,546	-0,119
227,950	-0,546	-0,118
228,000	-0,546	-0,119
228,050	-0,546	-0,118
228,100	-0,546	-0,119
228,150	-0,546	-0,118
228,200	-0,546	-0,119
228,250	-0,548	-0,118
228,300	-0,557	-0,120
228,350	-0,565	-0,120
228,400	-0,570	-0,121
228,450	-0,572	-0,121
228,500	-0,572	-0,122
228,550	-0,573	-0,121
228,600	-0,573	-0,122
228,650	-0,573	-0,121
228,700	-0,573	-0,122
228,750	-0,573	-0,121
228,800	-0,573	-0,122
228,850	-0,573	-0,121
228,900	-0,573	-0,122
228,950	-0,573	-0,121
229,000	-0,574	-0,122
229,050	-0,578	-0,121
229,100	-0,582	-0,122
229,150	-0,586	-0,122
229,200	-0,588	-0,123
229,250	-0,588	-0,122
229,300	-0,589	-0,123
229,350	-0,591	-0,122
229,400	-0,593	-0,123
229,450	-0,595	-0,122
229,500	-0,597	-0,124
229,550	-0,598	-0,123
229,600	-0,598	-0,124
229,650	-0,598	-0,123
229,700	-0,598	-0,124
229,750	-0,598	-0,123
229,800	-0,598	-0,124
229,850	-0,598	-0,123
229,900	-0,598	-0,124
229,950	-0,598	-0,123
230,000	-0,599	-0,124
230,050	-0,601	-0,123
230,100	-0,602	-0,124
230,150	-0,603	-0,123
230,200	-0,605	-0,124
230,250	-0,606	-0,123
230,300	-0,612	-0,125
230,350	-0,617	-0,124
230,400	-0,618	-0,125
230,450	-0,618	-0,124
230,500	-0,619	-0,125
230,550	-0,619	-0,125
230,600	-0,619	-0,125
230,650	-0,619	-0,124
230,700	-0,619	-0,125
230,750	-0,619	-0,124
230,800	-0,619	-0,125
230,850	-0,621	-0,125
230,900	-0,627	-0,126
230,950	-0,630	-0,125
231,000	-0,631	-0,126
231,050	-0,631	-0,126
231,100	-0,631	-0,126
231,150	-0,632	-0,126
231,200	-0,634	-0,126
231,250	-0,637	-0,126
231,300	-0,640	-0,127
231,350	-0,641	-0,126
231,400	-0,641	-0,127
231,450	-0,641	-0,126
231,500	-0,642	-0,127
231,550	-0,642	-0,126
231,600	-0,642	-0,127
231,650	-0,641	-0,126
231,700	-0,642	-0,127
231,750	-0,642	-0,126
231,800	-0,642	-0,127
231,850	-0,642	-0,127
231,900	-0,641	-0,127
231,950	-0,643	-0,126
232,000	-0,652	-0,128
232,050	-0,659	-0,128
232,100	-0,662	-0,129
232,150	-0,663	-0,128
232,200	-0,664	-0,129
232,250	-0,666	-0,128
232,300	-0,668	-0,129
232,350	-0,669	-0,128
232,400	-0,670	-0,129
232,450	-0,669	-0,128
232,500	-0,670	-0,129
232,550	-0,673	-0,129
232,600	-0,679	-0,130
232,650	-0,685	-0,130
232,700	-0,689	-0,130
232,750	-0,691	-0,130
232,800	-0,692	-0,131
232,850	-0,694	-0,130
232,900	-0,696	-0,131
232,950	-0,697	-0,130
233,000	-0,696	-0,131
233,050	-0,697	-0,131
233,100	-0,697	-0,131
233,150	-0,697	-0,130
233,200	-0,698	-0,131
233,250	-0,699	-0,130
233,300	-0,702	-0,131
233,350	-0,703	-0,131
233,400	-0,705	-0,132
233,450	-0,706	-0,131
233,500	-0,707	-0,132
233,550	-0,709	-0,131
233,600	-0,709	-0,132
233,650	-0,709	-0,131
233,700	-0,709	-0,132
233,750	-0,709	-0,131
233,800	-0,710	-0,132
233,850	-0,709	-0,131
233,900	-0,709	-0,132
233,950	-0,709	-0,131
234,000	-0,710	-0,132
234,050	-0,710	-0,131
234,100	-0,711	-0,132
234,150	-0,713	-0,132
234,200	-0,713	-0,132
234,250	-0,714	-0,132
234,300	-0,719	-0,133
234,350	-0,722	-0,132
234,400	-0,722	-0,133
234,450	-0,723	-0,132
234,500	-0,725	-0,133
234,550	-0,730	-0,133
234,600	-0,733	-0,134
234,650	-0,734	-0,133
234,700	-0,734	-0,134
234,750	-0,734	-0,133
234,800	-0,734	-0,133
234,850	-0,735	-0,133
234,900	-0,735	-0,133
234,950	-0,735	-0,133
235,000	-0,735	-0,134
235,050	-0,735	-0,133
235,100	-0,735	-0,134
235,150	-0,735	-0,133
235,200	-0,735	-0,134
235,250	-0,735	-0,133
235,300	-0,735	-0,134
235,350	-0,735	-0,133
235,400	-0,735	-0,134
235,450	-0,735	-0,133
235,500	-0,735	-0,134
235,550	-0,735	-0,133
235,600	-0,735	-0,134
235,650	-0,736	-0,133
235,700	-0,741	-0,134
235,750	-0,751	-0,134
235,800	-0,757	-0,135
235,850	-0,759	-0,135
235,900	-0,759	-0,135
235,950	-0,760	-0,135
236,000	-0,760	-0,135
236,050	-0,760	-0,135
236,100	-0,760	-0,135
236,150	-0,760	-0,135
236,200	-0,760	-0,135
236,250	-0,760	-0,135
236,300	-0,763	-0,135
236,350	-0,771	-0,136
236,400	-0,775	-0,136
236,450	-0,777	-0,136
236,500	-0,779	-0,136
236,550	-0,780	-0,136
236,600	-0,782	-0,137
236,650	-0,784	-0,137
236,700	-0,784	-0,137
236,750	-0,785	-0,136
236,800	-0,785	-0,137
236,850	-0,785	-0,136
236,900	-0,785	-0,137
236,950	-0,785	-0,136
237,000	-0,787	-0,137
237,050	-0,793	-0,137
237,100	-0,798	-0,137
237,150	-0,801	-0,137
237,200	-0,806	-0,138
237,250	-0,811	-0,138
237,300	-0,813	-0,138
237,350	-0,815	-0,138
237,400	-0,815	-0,139
237,450	-0,816	-0,138
237,500	-0,816	-0,139
237,550	-0,816	-0,138
237,600	-0,816	-0,138
237,650	-0,816	-0,138
237,700	-0,816	-0,138
237,750	-0,816	-0,139
237,800	-0,816	-0,139
237,850	-0,816	-0,138
237,900	-0,817	-0,139
237,950	-0,820	-0,139
238,000	-0,824	-0,139
238,050	-0,827	-0,139
238,100	-0,827	-0,139
238,150	-0,828	-0,139
238,200	-0,829	-0,139
238,250	-0,831	-0,139
238,300	-0,831	-0,140
238,350	-0,831	-0,139
238,400	-0,831	-0,140
238,450	-0,831	-0,139
238,500	-0,831	-0,140
238,550	-0,831	-0,139
238,600	-0,831	-0,139
238,650	-0,831	-0,139
238,700	-0,835	-0,139
238,750	-0,836	-0,139
238,800	-0,837	-0,140
238,850	-0,837	-0,140
238,900	-0,837	-0,140
238,950	-0,836	-0,139
239,000	-0,837	-0,140
239,050	-0,837	-0,139
239,100	-0,837	-0,140
239,150	-0,836	-0,139
239,200	-0,837	-0,140
239,250	-0,837	-0,140
239,300	-0,837	-0,139
239,350	-0,837	-0,140
239,400	-0,837	-0,140
239,450	-0,837	-0,140
239,500	-0,837	-0,140
239,550	-0,837	-0,140
239,600	-0,837	-0,140
239,650	-0,837	-0,139
239,700	-0,837	-0,139
239,750	-0,837	-0,140
239,800	-0,837	-0,139
239,850	-0,837	-0,140
239,900	-0,837	-0,140
239,950	-0,837	-0,140
240,000	-0,837	-0,140
240,050	-0,837	-0,139
240,100	-0,837	-0,140
240,150	-0,841	-0,140
240,200	-0,844	-0,140
240,250	-0,844	-0,140
240,300	-0,844	-0,140
240,350	-0,844	-0,140
240,400	-0,847	-0,140
240,450	-0,851	-0,141
240,500	-0,852	-0,141
240,550	-0,852	-0,141
240,600	-0,853	-0,140
240,650	-0,859	-0,141
240,700	-0,862	-0,141
240,750	-0,862	-0,141
240,800	-0,862	-0,141
240,850	-0,862	-0,141
240,900	-0,862	-0,141
240,950	-0,862	-0,141
241,000	-0,863	-0,141
241,050	-0,863	-0,141
241,100	-0,863	-0,141
241,150	-0,863	-0,141
241,200	-0,863	-0,141
241,250	-0,864	-0,141
241,300	-0,870	-0,141
241,350	-0,877	-0,142
241,400	-0,883	-0,142
241,450	-0,887	-0,143
241,500	-0,889	-0,143
241,550	-0,889	-0,143
241,600	-0,889	-0,142
241,650	-0,889	-0,143
241,700	-0,889	-0,142
241,750	-0,890	-0,143
241,800	-0,890	-0,142
241,850	-0,890	-0,143
241,900	-0,890	-0,142
241,950	-0,891	-0,143
242,000	-0,890	-0,142
242,050	-0,890	-0,143
242,100	-0,890	-0,142
242,150	-0,891	-0,143
242,200	-0,893	-0,143
242,250	-0,895	-0,143
242,300	-0,897	-0,143
242,350	-0,897	-0,143
242,400	-0,897	-0,143
242,450	-0,897	-0,143
242,500	-0,897	-0,142
242,550	-0,897	-0,143
242,600	-0,897	-0,143
242,650	-0,897	-0,143
242,700	-0,897	-0,143
242,750	-0,897	-0,143
242,800	-0,897	-0,142
242,850	-0,898	-0,144
242,900	-0,897	-0,143
242,950	-0,897	-0,143
243,000	-0,897	-0,143
243,050	-0,897	-0,143
243,100	-0,897	-0,143
243,150	-0,899	-0,143
243,200	-0,904	-0,143
243,250	-0,909	-0,144
243,300	-0,914	-0,144
243,350	-0,916	-0,144
243,400	-0,916	-0,144
243,450	-0,917	-0,145
243,500	-0,916	-0,144
243,550	-0,917	-0,145
243,600	-0,917	-0,144
243,650	-0,917	-0,144
243,700	-0,917	-0,144
243,750	-0,917	-0,145
243,800	-0,917	-0,144
243,850	-0,917	-0,144
243,900	-0,917	-0,144
243,950	-0,917	-0,144
244,000	-0,917	-0,144
244,050	-0,917	-0,144
244,100	-0,918	-0,144
244,150	-0,921	-0,145
244,200	-0,925	-0,144
244,250	-0,928	-0,145
244,300	-0,928	-0,144
244,350	-0,928	-0,145
244,400	-0,928	-0,144
244,450	-0,929	-0,145
244,500	-0,929	-0,144
244,550	-0,929	-0,145
244,600	-0,929	-0,144
244,650	-0,930	-0,145
244,700	-0,929	-0,144
244,750	-0,929	-0,145
244,800	-0,930	-0,145
244,850	-0,930	-0,145
244,900	-0,930	-0,144
244,950	-0,930	-0,145
245,000	-0,930	-0,144
245,050	-0,931	-0,145
245,100	-0,931	-0,145
245,150	-0,931	-0,145
245,200	-0,932	-0,144
245,250	-0,933	-0,146
245,300	-0,935	-0,145
245,350	-0,937	-0,146
245,400	-0,940	-0,145
245,450	-0,941	-0,146
245,500	-0,942	-0,145
245,550	-0,942	-0,146
245,600	-0,943	-0,145
245,650	-0,945	-0,146
245,700	-0,946	-0,145
245,750	-0,947	-0,146
245,800	-0,948	-0,145
245,850	-0,948	-0,146
245,900	-0,948	-0,145
245,950	-0,948	-0,146
246,000	-0,948	-0,145
246,050	-0,948	-0,146
246,100	-0,948	-0,145
246,150	-0,948	-0,146
246,200	-0,948	-0,145
246,250	-0,948	-0,146
246,300	-0,948	-0,145
246,350	-0,948	-0,146
246,400	-0,949	-0,145
246,450	-0,949	-0,146
246,500	-0,949	-0,145
246,550	-0,951	-0,146
246,600	-0,954	-0,145
246,650	-0,955	-0,147
246,700	-0,955	-0,146
246,750	-0,958	-0,147
246,800	-0,966	-0,146
246,850	-0,970	-0,147
246,900	-0,971	-0,146
246,950	-0,971	-0,147
247,000	-0,971	-0,146
247,050	-0,971	-0,147
247,100	-0,971	-0,147
247,150	-0,971	-0,147
247,200	-0,971	-0,146
247,250	-0,971	-0,147
247,300	-0,971	-0,146
247,350	-0,971	-0,147
247,400	-0,972	-0,147
247,450	-0,971	-0,147
247,500	-0,972	-0,147
247,550	-0,972	-0,147
247,600	-0,973	-0,146
247,650	-0,982	-0,147
247,700	-0,989	-0,147
247,750	-0,992	-0,149
247,800	-0,992	-0,147
247,850	-0,992	-0,148
247,900	-0,992	-0,148
247,950	-0,992	-0,149
248,000	-0,993	-0,148
248,050	-0,994	-0,149
248,100	-0,998	-0,148
248,150	-1,000	-0,149
248,200	-1,000	-0,148
248,250	-1,000	-0,149
248,300	-1,000	-0,148
248,350	-1,000	-0,149
248,400	-1,000	-0,148
248,450	-1,000	-0,149
248,500	-1,001	-0,148
248,550	-1,000	-0,149
248,600	-1,000	-0,148
248,650	-1,000	-0,149
248,700	-1,000	-0,148
248,750	-1,000	-0,149
248,800	-1,000	-0,148
248,850	-1,000	-0,149
248,900	-1,001	-0,148
248,950	-1,000	-0,149
249,000	-1,000	-0,148
249,050	-1,000	-0,149
249,100	-1,000	-0,148
249,150	-1,001	-0,149
249,200	-1,000	-0,148
249,250	-1,000	-0,149
249,300	-1,000	-0,148
249,350	-1,000	-0,149
249,400	-1,000	-0,148
249,450	-1,000	-0,149
249,500	-1,000	-0,148
249,550	-1,000	-0,149
249,600	-1,001	-0,148
249,650	-1,000	-0,149
249,700	-1,000	-0,148
249,750	-1,000	-0,149
249,800	-1,000	-0,148
249,850	-1,000	-0,149
249,900	-1,000	-0,148
249,950	-1,000	-0,149
250,000	-1,000	-0,148
250,050	-1,000	-0,149
250,100	-1,000	-0,148
250,150	-1,000	-0,149
250,200	-1,000	-0,148
250,250	-1,000	-0,149
250,300	-1,000	-0,148
250,350	-1,000	-0,149
250,400	-1,000	-0,148
250,450	-1,000	-0,149
250,500	-1,000	-0,148
250,550	-1,000	-0,149
250,600	-1,000	-0,148
250,650	-1,000	-0,149
250,700	-1,000	-0,147
250,750	-1,000	-0,149
250,800	-1,000	-0,148
250,850	-1,000	-0,149
250,900	-1,000	-0,148
250,950	-1,000	-0,149
251,000	-1,000	-0,148
251,050	-1,001	-0,149
251,100	-1,000	-0,148
251,150	-1,000	-0,149
251,200	-1,000	-0,148
