Zeit (s) Messreihe #1	Spannung, Ch A (V) Messreihe #1	Spannung, Ch B (V) Messreihe #1
0,000	6,760	-0,002
0,050	6,759	-8,096E-4
0,100	6,760	-0,002
0,150	6,759	-5,593E-4
0,200	6,760	-0,002
0,250	6,760	-5,410E-4
0,300	6,760	-0,002
0,350	6,760	-5,837E-4
0,400	6,760	-0,002
0,450	6,760	-4,995E-4
0,500	6,761	-0,002
0,550	6,760	-5,740E-4
0,600	6,760	-0,002
0,650	6,760	-6,558E-4
0,700	6,761	-0,002
0,750	6,760	-8,694E-4
0,800	6,761	-0,002
0,850	6,761	-7,156E-4
0,900	6,761	-0,002
0,950	6,761	-6,362E-4
1,000	6,761	-0,002
1,050	6,761	-5,715E-4
1,100	6,761	-0,002
1,150	6,761	-6,704E-4
1,200	6,761	-0,002
1,250	6,758	-5,630E-4
1,300	6,725	-0,002
1,350	6,710	-6,521E-4
1,400	6,709	-0,002
1,450	6,706	-6,472E-4
1,500	6,688	-0,002
1,550	6,674	-6,924E-4
1,600	6,667	-0,002
1,650	6,664	-5,276E-4
1,700	6,663	-0,002
1,750	6,652	-9,023E-4
1,800	6,641	-0,002
1,850	6,629	-6,594E-4
1,900	6,624	-0,002
1,950	6,618	-4,312E-4
2,000	6,607	-0,002
2,050	6,600	-6,497E-4
2,100	6,580	-0,002
2,150	6,566	-6,716E-4
2,200	6,561	-0,002
2,250	6,559	-4,897E-4
2,300	6,550	-0,002
2,350	6,532	-8,083E-4
2,400	6,517	-0,002
2,450	6,516	-6,533E-4
2,500	6,513	-0,002
2,550	6,497	-5,996E-4
2,600	6,488	-0,002
2,650	6,471	-3,311E-4
2,700	6,442	-0,002
2,750	6,421	-6,252E-4
2,800	6,396	-0,002
2,850	6,373	-6,802E-4
2,900	6,350	-0,002
2,950	6,323	-8,047E-4
3,000	6,305	-0,002
3,050	6,301	-5,398E-4
3,100	6,301	-0,002
3,150	6,293	-7,168E-4
3,200	6,274	-0,002
3,250	6,272	-8,181E-4
3,300	6,272	-0,002
3,350	6,272	-4,202E-4
3,400	6,267	-0,002
3,450	6,260	-5,862E-4
3,500	6,260	-0,002
3,550	6,260	-4,910E-4
3,600	6,260	-0,002
3,650	6,260	-4,971E-4
3,700	6,260	-0,002
3,750	6,253	-3,750E-4
3,800	6,251	-0,002
3,850	6,252	-4,092E-4
3,900	6,252	-0,002
3,950	6,247	-4,202E-4
4,000	6,239	-0,002
4,050	6,232	-1,296E-4
4,100	6,231	-0,002
4,150	6,232	-3,774E-4
4,200	6,231	-0,002
4,250	6,226	-5,667E-4
4,300	6,219	-0,002
4,350	6,215	-4,995E-4
4,400	6,213	-0,002
4,450	6,200	-2,822E-4
4,500	6,186	-0,002
4,550	6,182	-7,009E-4
4,600	6,181	-0,002
4,650	6,181	-3,762E-4
4,700	6,173	-0,002
4,750	6,164	-1,589E-4
4,800	6,153	-0,002
4,850	6,150	-6,277E-4
4,900	6,145	-0,002
4,950	6,135	-5,520E-4
5,000	6,122	-0,002
5,050	6,114	-5,776E-4
5,100	6,108	-0,002
5,150	6,106	-7,717E-4
5,200	6,095	-0,001
5,250	6,088	-5,264E-4
5,300	6,083	-0,002
5,350	6,079	-4,641E-4
5,400	6,072	-0,002
5,450	6,065	-3,652E-4
5,500	6,062	-0,002
5,550	6,062	-2,761E-4
5,600	6,057	-0,002
5,650	6,049	-5,483E-4
5,700	6,038	-0,002
5,750	6,026	-6,033E-4
5,800	6,021	-0,002
5,850	6,019	-4,604E-4
5,900	6,016	-0,002
5,950	6,007	-4,922E-4
6,000	5,998	-0,002
6,050	5,997	-2,126E-4
6,100	5,996	-0,001
6,150	5,990	-6,912E-4
6,200	5,988	-0,002
6,250	5,986	-4,946E-4
6,300	5,982	-0,001
6,350	5,979	-6,948E-4
6,400	5,974	-0,002
6,450	5,967	-4,568E-4
6,500	5,959	-0,002
6,550	5,959	-3,591E-4
6,600	5,952	-0,002
6,650	5,943	-5,654E-4
6,700	5,935	-0,002
6,750	5,932	-4,849E-4
6,800	5,928	-0,002
6,850	5,925	-5,190E-4
6,900	5,916	-0,002
6,950	5,901	-5,728E-4
7,000	5,890	-0,002
7,050	5,889	-9,180E-5
7,100	5,888	-0,002
7,150	5,883	-5,764E-4
7,200	5,874	-0,002
7,250	5,866	-3,542E-4
7,300	5,863	-0,002
7,350	5,858	-4,348E-4
7,400	5,852	-0,002
7,450	5,848	-8,694E-4
7,500	5,847	-0,002
7,550	5,845	-4,067E-4
7,600	5,844	-0,002
7,650	5,843	-5,923E-4
7,700	5,837	-0,002
7,750	5,829	-4,324E-4
7,800	5,825	-0,001
7,850	5,823	-5,972E-4
7,900	5,823	-0,002
7,950	5,822	-4,360E-4
8,000	5,819	-0,002
8,050	5,815	-4,775E-4
8,100	5,806	-0,002
8,150	5,803	-2,493E-4
8,200	5,799	-0,002
8,250	5,795	-4,702E-4
8,300	5,791	-0,002
8,350	5,785	-4,507E-4
8,400	5,777	-0,002
8,450	5,773	-2,798E-4
8,500	5,769	-0,002
8,550	5,765	-4,641E-4
8,600	5,763	-0,002
8,650	5,754	-5,605E-4
8,700	5,744	-0,002
8,750	5,740	-5,691E-4
8,800	5,734	-0,002
8,850	5,730	-3,604E-4
8,900	5,721	-0,002
8,950	5,708	-5,093E-4
9,000	5,690	-0,002
9,050	5,673	-4,580E-4
9,100	5,665	-0,002
9,150	5,666	-3,811E-4
9,200	5,666	-0,002
9,250	5,666	-3,689E-4
9,300	5,666	-0,002
9,350	5,666	-3,896E-4
9,400	5,666	-0,002
9,450	5,666	-5,874E-4
9,500	5,666	-0,001
9,550	5,652	-1,882E-4
9,600	5,631	-0,002
9,650	5,614	-5,923E-4
9,700	5,596	-0,002
9,750	5,579	-3,518E-4
9,800	5,566	-0,001
9,850	5,554	-2,615E-4
9,900	5,546	-0,001
9,950	5,544	-2,859E-4
10,000	5,535	-0,001
10,050	5,523	-1,821E-4
10,100	5,507	-0,001
10,150	5,496	-6,045E-4
10,200	5,484	-0,001
10,250	5,476	-2,273E-4
10,300	5,469	-0,001
10,350	5,463	-3,445E-4
10,400	5,454	-0,002
10,450	5,435	-2,004E-4
10,500	5,421	-0,002
10,550	5,407	-4,849E-4
10,600	5,393	-0,001
10,650	5,370	-2,151E-4
10,700	5,344	-0,001
10,750	5,319	-6,570E-4
10,800	5,296	-0,002
10,850	5,269	-2,517E-4
10,900	5,239	-0,002
10,950	5,221	-4,080E-4
11,000	5,203	-0,001
11,050	5,193	-2,163E-4
11,100	5,175	-0,001
11,150	5,154	-2,566E-4
11,200	5,138	-0,002
11,250	5,131	-2,542E-4
11,300	5,128	-0,001
11,350	5,129	-1,809E-4
11,400	5,128	-0,002
11,450	5,129	-2,432E-4
11,500	5,128	-0,002
11,550	5,129	-3,359E-4
11,600	5,128	-0,002
11,650	5,129	-3,762E-4
11,700	5,128	-0,001
11,750	5,129	-1,992E-4
11,800	5,128	-0,002
11,850	5,129	-4,714E-4
11,900	5,125	-0,001
11,950	5,094	-4,421E-4
12,000	5,080	-0,001
12,050	5,069	-5,032E-4
12,100	5,058	-0,001
12,150	5,059	-2,712E-4
12,200	5,058	-0,002
12,250	5,058	-4,153E-4
12,300	5,053	-0,001
12,350	5,033	-4,495E-4
12,400	5,024	-0,001
12,450	5,015	-5,483E-4
12,500	5,005	-0,001
12,550	5,001	-3,689E-4
12,600	4,987	-0,002
12,650	4,975	-2,725E-4
12,700	4,963	-0,001
12,750	4,945	-1,638E-4
12,800	4,927	-0,002
12,850	4,914	6,567E-5
12,900	4,893	-0,001
12,950	4,875	-4,348E-4
13,000	4,860	-0,001
13,050	4,839	-3,076E-5
13,100	4,821	-0,001
13,150	4,807	-9,302E-5
13,200	4,793	-0,001
13,250	4,779	-1,101E-4
13,300	4,759	-0,001
13,350	4,753	2,197E-6
13,400	4,747	-0,001
13,450	4,734	-6,494E-5
13,500	4,723	-0,001
13,550	4,715	-2,664E-4
13,600	4,707	-0,001
13,650	4,698	-1,125E-4
13,700	4,687	-8,303E-4
13,750	4,675	-1,431E-4
13,800	4,663	-0,001
13,850	4,651	-1,956E-4
13,900	4,639	-0,001
13,950	4,629	-1,211E-4
14,000	4,622	-0,001
14,050	4,617	-7,227E-5
14,100	4,607	-0,001
14,150	4,597	-2,773E-4
14,200	4,584	-0,001
14,250	4,575	1,316E-4
14,300	4,558	-0,001
14,350	4,542	-3,091E-4
14,400	4,524	-9,756E-4
14,450	4,508	-1,978E-5
14,500	4,487	-9,060E-4
14,550	4,468	-2,603E-4
14,600	4,440	-0,001
14,650	4,412	2,036E-4
14,700	4,401	-9,255E-4
14,750	4,393	-6,372E-5
14,800	4,373	-8,071E-4
14,850	4,362	-1,626E-4
14,900	4,347	-7,510E-4
14,950	4,328	4,905E-4
15,000	4,309	-0,001
15,050	4,282	9,375E-5
15,100	4,256	-0,001
15,150	4,237	4,465E-4
15,200	4,215	-7,461E-4
15,250	4,194	1,011E-4
15,300	4,170	-9,695E-4
15,350	4,138	-4,785E-5
15,400	4,105	-9,963E-4
15,450	4,076	1,279E-4
15,500	4,060	-9,036E-4
15,550	4,044	2,085E-4
15,600	4,018	-0,001
15,650	3,998	2,295E-5
15,700	3,985	-0,001
15,750	3,966	1,292E-4
15,800	3,949	-7,717E-4
15,850	3,947	2,769E-4
15,900	3,947	-6,094E-4
15,950	3,947	3,782E-4
16,000	3,947	-9,878E-4
16,050	3,947	-4,297E-5
16,100	3,947	-6,143E-4
16,150	3,951	4,126E-5
16,200	3,954	-8,914E-4
16,250	3,951	-3,687E-5
16,300	3,951	-8,804E-4
16,350	3,931	2,244E-4
16,400	3,890	-8,376E-4
16,450	3,838	3,599E-4
16,500	3,784	-7,131E-4
16,550	3,743	-1,370E-4
16,600	3,695	-0,001
16,650	3,644	9,253E-5
16,700	3,610	-8,706E-4
16,750	3,559	2,488E-4
16,800	3,506	-7,620E-4
16,850	3,479	4,270E-4
16,900	3,468	-5,837E-4
16,950	3,452	3,452E-4
17,000	3,437	-7,375E-4
17,050	3,420	4,050E-4
17,100	3,406	-7,437E-4
17,150	3,401	2,732E-4
17,200	3,380	-5,190E-4
17,250	3,366	5,918E-4
17,300	3,351	-5,215E-4
17,350	3,334	5,979E-4
17,400	3,316	-4,775E-4
17,450	3,301	6,138E-4
17,500	3,262	-4,458E-4
17,550	3,207	5,088E-4
17,600	3,169	-3,005E-4
17,650	3,152	5,649E-4
17,700	3,142	-5,093E-4
17,750	3,136	5,771E-4
17,800	3,128	-1,687E-4
17,850	3,107	6,565E-4
17,900	3,078	-3,433E-4
17,950	3,061	5,393E-4
18,000	3,049	-2,444E-4
18,050	3,034	7,187E-4
18,100	3,008	-4,812E-4
18,150	2,977	5,295E-4
18,200	2,956	-2,590E-4
18,250	2,940	7,139E-4
18,300	2,911	-1,016E-4
18,350	2,894	6,821E-4
18,400	2,878	-1,687E-4
18,450	2,864	7,834E-4
18,500	2,845	-3,494E-4
18,550	2,828	7,505E-4
18,600	2,821	-5,923E-4
18,650	2,820	5,576E-4
18,700	2,820	-1,174E-4
18,750	2,820	5,601E-4
18,800	2,819	-2,957E-4
18,850	2,820	8,298E-4
18,900	2,821	-4,175E-5
18,950	2,823	7,688E-4
19,000	2,822	-1,504E-4
19,050	2,823	7,737E-4
19,100	2,822	-3,396E-4
19,150	2,783	7,932E-4
19,200	2,723	-1,565E-4
19,250	2,683	6,467E-4
19,300	2,662	-1,001E-5
19,350	2,639	8,726E-4
19,400	2,615	-4,297E-5
19,450	2,599	8,604E-4
19,500	2,574	-3,198E-5
19,550	2,550	8,872E-4
19,600	2,516	-2,222E-5
19,650	2,489	8,457E-4
19,700	2,461	1,060E-4
19,750	2,424	9,348E-4
19,800	2,397	1,768E-4
19,850	2,371	0,001
19,900	2,344	1,023E-4
19,950	2,315	9,006E-4
20,000	2,290	3,367E-4
20,050	2,277	8,115E-4
20,100	2,262	1,121E-4
20,150	2,244	0,001
20,200	2,223	1,865E-4
20,250	2,203	9,604E-4
20,300	2,185	1,230E-4
20,350	2,168	0,001
20,400	2,140	3,977E-4
20,450	2,117	0,002
20,500	2,096	3,660E-4
20,550	2,081	0,001
20,600	2,063	2,915E-4
20,650	2,054	0,001
20,700	2,051	2,988E-4
20,750	2,039	0,001
20,800	2,030	4,929E-4
20,850	2,010	0,001
20,900	1,981	4,624E-4
20,950	1,965	8,262E-4
21,000	1,943	1,548E-4
21,050	1,918	9,836E-4
21,100	1,912	-1,125E-4
21,150	1,911	0,001
21,200	1,894	6,882E-4
21,250	1,892	0,001
21,300	1,891	4,661E-4
21,350	1,892	0,001
21,400	1,891	2,231E-4
21,450	1,892	0,001
21,500	1,891	3,586E-4
21,550	1,892	0,001
21,600	1,891	5,674E-4
21,650	1,892	0,001
21,700	1,891	4,514E-4
21,750	1,891	0,001
21,800	1,841	5,967E-4
21,850	1,794	0,001
21,900	1,772	5,076E-4
21,950	1,736	0,001
22,000	1,694	4,502E-4
22,050	1,660	0,001
22,100	1,627	5,686E-4
22,150	1,603	0,002
22,200	1,579	6,882E-4
22,250	1,562	0,001
22,300	1,534	0,001
22,350	1,504	0,002
22,400	1,487	7,371E-4
22,450	1,460	0,002
22,500	1,424	0,001
22,550	1,401	0,001
22,600	1,378	0,001
22,650	1,358	0,002
22,700	1,341	0,001
22,750	1,312	0,002
22,800	1,258	6,895E-4
22,850	1,223	0,002
22,900	1,185	9,763E-4
22,950	1,139	0,002
23,000	1,070	0,001
23,050	1,053	0,002
23,100	1,051	0,001
23,150	1,025	0,002
23,200	0,998	0,001
23,250	0,976	0,002
23,300	0,953	0,001
23,350	0,939	0,002
23,400	0,924	0,001
23,450	0,902	0,002
23,500	0,857	0,001
23,550	0,829	0,002
23,600	0,817	0,002
23,650	0,817	0,002
23,700	0,816	0,001
23,750	0,817	0,002
23,800	0,816	0,001
23,850	0,817	0,002
23,900	0,816	0,001
23,950	0,817	0,002
24,000	0,816	0,002
24,050	0,811	0,002
24,100	0,758	0,001
24,150	0,707	0,002
24,200	0,659	0,002
24,250	0,613	0,002
24,300	0,597	0,001
24,350	0,581	0,002
24,400	0,556	0,002
24,450	0,534	0,002
24,500	0,512	0,002
24,550	0,481	0,002
24,600	0,458	0,002
24,650	0,437	0,002
24,700	0,406	0,002
24,750	0,388	0,002
24,800	0,362	0,002
24,850	0,333	0,003
24,900	0,302	0,002
24,950	0,260	0,002
25,000	0,218	0,002
25,050	0,184	0,003
25,100	0,153	0,002
25,150	0,142	0,003
25,200	0,127	0,002
25,250	0,113	0,003
25,300	0,089	0,002
25,350	0,051	0,003
25,400	0,026	0,002
25,450	0,015	0,003
25,500	0,014	0,003
25,550	0,011	0,003
25,600	0,010	0,002
25,650	0,011	0,003
25,700	0,004	0,002
25,750	-3,314E-4	0,003
25,800	-9,747E-4	0,002
25,850	-4,706E-4	0,003
25,900	-8,575E-4	0,002
25,950	-6,354E-4	0,003
26,000	-9,308E-4	0,002
26,050	-4,974E-4	0,003
26,100	-9,332E-4	0,002
26,150	-1,788E-4	0,003
26,200	-8,722E-4	0,002
26,250	-3,937E-4	0,003
26,300	-4,510E-4	0,003
26,350	-3,143E-4	0,003
26,400	-8,405E-4	0,002
26,450	-5,133E-4	0,003
26,500	-8,514E-4	0,002
26,550	-3,949E-4	0,003
26,600	-6,696E-4	0,003
26,650	-4,193E-4	0,003
26,700	0,002	0,002
26,750	0,010	0,003
26,800	0,009	0,002
26,850	0,009	0,003
26,900	0,009	0,002
26,950	0,009	0,003
27,000	0,009	0,002
27,050	0,009	0,003
27,100	0,009	0,003
27,150	0,009	0,003
27,200	0,009	0,003
27,250	0,009	0,003
27,300	0,009	0,002
27,350	0,009	0,003
27,400	0,008	0,002
27,450	0,009	0,003
27,500	0,008	0,002
27,550	0,009	0,003
27,600	0,009	0,003
27,650	0,009	0,003
27,700	0,009	0,003
27,750	0,009	0,003
27,800	0,009	0,002
27,850	0,008	0,003
27,900	-0,005	0,003
27,950	-0,005	0,003
28,000	-0,006	0,003
28,050	-0,005	0,003
28,100	-0,006	0,003
28,150	-0,005	0,003
28,200	-0,006	0,003
28,250	-0,006	0,003
28,300	-0,005	0,003
28,350	-0,005	0,003
28,400	-0,006	0,003
28,450	-0,006	0,003
28,500	-0,006	0,003
28,550	-0,006	0,003
28,600	-0,010	0,003
28,650	-0,017	0,003
28,700	-0,020	0,003
28,750	-0,019	0,003
28,800	-0,019	0,003
28,850	-0,016	0,003
28,900	-0,006	0,003
28,950	0,003	0,003
29,000	0,004	0,003
29,050	0,004	0,003
29,100	0,004	0,003
29,150	0,004	0,003
29,200	0,004	0,003
29,250	0,004	0,003
29,300	0,004	0,003
29,350	0,004	0,003
29,400	0,004	0,003
29,450	0,004	0,003
29,500	0,004	0,003
29,550	0,004	0,003
29,600	0,004	0,003
29,650	5,194E-4	0,003
29,700	-0,003	0,003
29,750	-0,012	0,003
29,800	-0,018	0,003
29,850	-0,017	0,003
29,900	-0,017	0,003
29,950	-0,018	0,003
30,000	-0,049	0,003
30,050	-0,125	0,003
30,100	-0,222	0,003
30,150	-0,312	0,004
30,200	-0,380	0,003
30,250	-0,393	0,004
30,300	-0,394	0,004
30,350	-0,394	0,003
30,400	-0,402	0,003
30,450	-0,418	0,004
30,500	-0,419	0,004
30,550	-0,419	0,003
30,600	-0,419	0,004
30,650	-0,422	0,003
30,700	-0,428	0,004
30,750	-0,438	0,004
30,800	-0,442	0,004
30,850	-0,454	0,004
30,900	-0,473	0,004
30,950	-0,480	0,004
31,000	-0,493	0,003
31,050	-0,519	0,004
31,100	-0,534	0,004
31,150	-0,541	0,004
31,200	-0,567	0,004
31,250	-0,598	0,004
31,300	-0,618	0,004
31,350	-0,634	0,004
31,400	-0,654	0,004
31,450	-0,680	0,004
31,500	-0,701	0,004
31,550	-0,721	0,005
31,600	-0,740	0,005
31,650	-0,762	0,005
31,700	-0,793	0,005
31,750	-0,813	0,005
31,800	-0,834	0,005
31,850	-0,870	0,005
31,900	-0,904	0,006
31,950	-0,934	0,006
32,000	-0,961	0,006
32,050	-0,997	0,007
32,100	-1,020	0,008
32,150	-1,033	0,009
32,200	-1,050	0,010
32,250	-1,061	0,011
32,300	-1,073	0,013
32,350	-1,080	0,015
32,400	-1,081	0,018
32,450	-1,081	0,022
32,500	-1,079	0,026
32,550	-1,077	0,031
32,600	-1,079	0,037
32,650	-1,080	0,043
32,700	-1,076	0,050
32,750	-1,071	0,057
32,800	-1,067	0,065
32,850	-1,064	0,072
32,900	-1,061	0,081
32,950	-1,058	0,088
33,000	-1,054	0,096
33,050	-1,053	0,104
33,100	-1,056	0,112
33,150	-1,074	0,121
33,200	-1,080	0,134
33,250	-1,085	0,147
33,300	-1,093	0,161
33,350	-1,099	0,177
33,400	-1,102	0,195
33,450	-1,106	0,212
33,500	-1,111	0,230
33,550	-1,113	0,248
33,600	-1,122	0,267
33,650	-1,127	0,284
33,700	-1,130	0,302
33,750	-1,131	0,319
33,800	-1,130	0,336
33,850	-1,130	0,353
33,900	-1,135	0,371
33,950	-1,140	0,387
34,000	-1,143	0,405
34,050	-1,147	0,421
34,100	-1,152	0,438
34,150	-1,154	0,453
34,200	-1,157	0,470
34,250	-1,158	0,486
34,300	-1,160	0,502
34,350	-1,159	0,518
34,400	-1,160	0,534
34,450	-1,164	0,550
34,500	-1,165	0,566
34,550	-1,165	0,581
34,600	-1,168	0,597
34,650	-1,169	0,612
34,700	-1,171	0,628
34,750	-1,177	0,643
34,800	-1,184	0,659
34,850	-1,189	0,673
34,900	-1,195	0,688
34,950	-1,200	0,702
35,000	-1,207	0,717
35,050	-1,212	0,730
35,100	-1,214	0,745
35,150	-1,218	0,758
35,200	-1,226	0,772
35,250	-1,238	0,785
35,300	-1,252	0,798
35,350	-1,263	0,809
35,400	-1,274	0,821
35,450	-1,289	0,832
35,500	-1,316	0,842
35,550	-1,354	0,850
35,600	-1,403	0,857
35,650	-1,446	0,860
35,700	-1,495	0,863
35,750	-1,512	0,862
35,800	-1,515	0,863
35,850	-1,516	0,863
35,900	-1,516	0,864
35,950	-1,517	0,863
36,000	-1,517	0,863
36,050	-1,517	0,863
36,100	-1,517	0,864
36,150	-1,517	0,863
36,200	-1,532	0,864
36,250	-1,534	0,863
36,300	-1,517	0,864
36,350	-1,509	0,863
36,400	-1,516	0,863
36,450	-1,531	0,863
36,500	-1,549	0,864
36,550	-1,576	0,863
36,600	-1,585	0,863
36,650	-1,586	0,863
36,700	-1,593	0,864
36,750	-1,606	0,863
36,800	-1,618	0,863
36,850	-1,618	0,863
36,900	-1,622	0,864
36,950	-1,633	0,863
37,000	-1,635	0,864
37,050	-1,635	0,863
37,100	-1,635	0,864
37,150	-1,640	0,863
37,200	-1,673	0,864
37,250	-1,707	0,863
37,300	-1,729	0,864
37,350	-1,776	0,863
37,400	-1,795	0,864
37,450	-1,800	0,863
37,500	-1,818	0,864
37,550	-1,834	0,863
37,600	-1,855	0,864
37,650	-1,875	0,863
37,700	-1,883	0,864
37,750	-1,892	0,863
37,800	-1,906	0,864
37,850	-1,913	0,863
37,900	-1,921	0,864
37,950	-1,941	0,863
38,000	-1,965	0,864
38,050	-1,992	0,863
38,100	-2,003	0,864
38,150	-2,024	0,863
38,200	-2,049	0,864
38,250	-2,064	0,863
38,300	-2,070	0,864
38,350	-2,074	0,863
38,400	-2,084	0,865
38,450	-2,098	0,864
38,500	-2,113	0,865
38,550	-2,116	0,864
38,600	-2,117	0,865
38,650	-2,114	0,864
38,700	-2,114	0,865
38,750	-2,114	0,863
38,800	-2,114	0,864
38,850	-2,114	0,863
38,900	-2,114	0,865
38,950	-2,114	0,863
39,000	-2,114	0,864
39,050	-2,142	0,863
39,100	-2,230	0,865
39,150	-2,280	0,864
39,200	-2,301	0,865
39,250	-2,325	0,863
39,300	-2,351	0,865
39,350	-2,364	0,864
39,400	-2,371	0,865
39,450	-2,397	0,863
39,500	-2,420	0,865
39,550	-2,436	0,864
39,600	-2,448	0,865
39,650	-2,461	0,864
39,700	-2,489	0,865
39,750	-2,517	0,864
39,800	-2,535	0,865
39,850	-2,555	0,864
39,900	-2,574	0,865
39,950	-2,594	0,864
40,000	-2,624	0,865
40,050	-2,644	0,864
40,100	-2,666	0,865
40,150	-2,686	0,864
40,200	-2,709	0,865
40,250	-2,752	0,865
40,300	-2,786	0,865
40,350	-2,818	0,864
40,400	-2,855	0,865
40,450	-2,867	0,864
40,500	-2,886	0,865
40,550	-2,907	0,864
40,600	-2,935	0,866
40,650	-2,958	0,865
40,700	-2,970	0,866
40,750	-2,989	0,865
40,800	-3,000	0,865
40,850	-3,007	0,864
40,900	-3,021	0,865
40,950	-3,035	0,864
41,000	-3,050	0,865
41,050	-3,059	0,865
41,100	-3,068	0,866
41,150	-3,073	0,864
41,200	-3,080	0,865
41,250	-3,084	0,864
41,300	-3,084	0,865
41,350	-3,083	0,865
41,400	-3,083	0,865
41,450	-3,082	0,865
41,500	-3,082	0,866
41,550	-3,083	0,864
41,600	-3,088	0,865
41,650	-3,088	0,864
41,700	-3,088	0,865
41,750	-3,108	0,865
41,800	-3,188	0,865
41,850	-3,239	0,865
41,900	-3,268	0,866
41,950	-3,316	0,865
42,000	-3,352	0,866
42,050	-3,356	0,865
42,100	-3,364	0,866
42,150	-3,370	0,865
42,200	-3,388	0,866
42,250	-3,420	0,865
42,300	-3,431	0,866
42,350	-3,435	0,865
42,400	-3,447	0,866
42,450	-3,460	0,865
42,500	-3,470	0,866
42,550	-3,491	0,865
42,600	-3,499	0,866
42,650	-3,505	0,865
42,700	-3,514	0,866
42,750	-3,523	0,865
42,800	-3,532	0,866
42,850	-3,546	0,865
42,900	-3,559	0,866
42,950	-3,566	0,865
43,000	-3,584	0,866
43,050	-3,601	0,865
43,100	-3,615	0,866
43,150	-3,656	0,865
43,200	-3,682	0,866
43,250	-3,686	0,865
43,300	-3,685	0,866
43,350	-3,684	0,865
43,400	-3,684	0,866
43,450	-3,685	0,865
43,500	-3,685	0,866
43,550	-3,685	0,865
43,600	-3,684	0,866
43,650	-3,682	0,865
43,700	-3,689	0,866
43,750	-3,737	0,865
43,800	-3,789	0,866
43,850	-3,815	0,865
43,900	-3,849	0,866
43,950	-3,875	0,865
44,000	-3,899	0,866
44,050	-3,923	0,865
44,100	-3,943	0,866
44,150	-3,974	0,865
44,200	-3,998	0,866
44,250	-4,014	0,865
44,300	-4,024	0,866
44,350	-4,055	0,865
44,400	-4,078	0,866
44,450	-4,111	0,865
44,500	-4,138	0,866
44,550	-4,140	0,865
44,600	-4,143	0,866
44,650	-4,169	0,865
44,700	-4,203	0,866
44,750	-4,235	0,865
44,800	-4,283	0,867
44,850	-4,312	0,865
44,900	-4,334	0,866
44,950	-4,343	0,866
45,000	-4,357	0,866
45,050	-4,364	0,866
45,100	-4,367	0,866
45,150	-4,373	0,866
45,200	-4,388	0,866
45,250	-4,399	0,865
45,300	-4,410	0,867
45,350	-4,422	0,866
45,400	-4,435	0,866
45,450	-4,441	0,865
45,500	-4,440	0,867
45,550	-4,440	0,866
45,600	-4,440	0,867
45,650	-4,440	0,865
45,700	-4,438	0,867
45,750	-4,429	0,865
45,800	-4,436	0,866
45,850	-4,445	0,865
45,900	-4,491	0,867
45,950	-4,563	0,865
46,000	-4,649	0,866
46,050	-4,685	0,865
46,100	-4,740	0,866
46,150	-4,787	0,865
46,200	-4,794	0,867
46,250	-4,817	0,866
46,300	-4,859	0,867
46,350	-4,876	0,866
46,400	-4,887	0,867
46,450	-4,903	0,866
46,500	-4,935	0,867
46,550	-4,954	0,866
46,600	-4,972	0,867
46,650	-5,013	0,866
46,700	-5,029	0,867
46,750	-5,036	0,866
46,800	-5,052	0,867
46,850	-5,073	0,866
46,900	-5,094	0,867
46,950	-5,142	0,866
47,000	-5,189	0,867
47,050	-5,198	0,866
47,100	-5,229	0,867
47,150	-5,257	0,866
47,200	-5,281	0,867
47,250	-5,283	0,866
47,300	-5,285	0,867
47,350	-5,285	0,866
47,400	-5,285	0,867
47,450	-5,285	0,866
47,500	-5,285	0,867
47,550	-5,285	0,866
47,600	-5,287	0,867
47,650	-5,342	0,866
47,700	-5,456	0,867
47,750	-5,529	0,866
47,800	-5,556	0,867
47,850	-5,577	0,866
47,900	-5,587	0,867
47,950	-5,599	0,866
48,000	-5,629	0,867
48,050	-5,664	0,866
48,100	-5,743	0,867
48,150	-5,760	0,866
48,200	-5,785	0,867
48,250	-5,808	0,866
48,300	-5,817	0,867
48,350	-5,835	0,866
48,400	-5,866	0,867
48,450	-5,895	0,866
48,500	-5,906	0,867
48,550	-5,918	0,866
48,600	-5,944	0,867
48,650	-5,968	0,866
48,700	-5,969	0,867
48,750	-5,980	0,866
48,800	-5,990	0,867
48,850	-5,996	0,866
48,900	-6,006	0,867
48,950	-6,022	0,866
49,000	-6,029	0,868
49,050	-6,052	0,866
49,100	-6,071	0,867
49,150	-6,083	0,866
49,200	-6,095	0,867
49,250	-6,096	0,866
49,300	-6,106	0,867
49,350	-6,113	0,866
49,400	-6,125	0,867
49,450	-6,139	0,866
49,500	-6,147	0,867
49,550	-6,157	0,866
49,600	-6,175	0,867
49,650	-6,192	0,866
49,700	-6,211	0,867
49,750	-6,229	0,866
49,800	-6,239	0,867
49,850	-6,255	0,866
49,900	-6,275	0,867
49,950	-6,307	0,866
50,000	-6,371	0,867
50,050	-6,436	0,866
50,100	-6,456	0,868
50,150	-6,456	0,866
50,200	-6,456	0,868
50,250	-6,456	0,866
50,300	-6,456	0,867
50,350	-6,456	0,866
50,400	-6,456	0,868
50,450	-6,456	0,866
50,500	-6,456	0,867
50,550	-6,489	0,866
50,600	-6,555	0,867
50,650	-6,588	0,866
50,700	-6,620	0,868
50,750	-6,646	0,866
50,800	-6,674	0,867
50,850	-6,703	0,866
50,900	-6,725	0,868
50,950	-6,743	0,866
51,000	-6,749	0,867
51,050	-6,759	0,867
51,100	-6,765	0,868
51,150	-6,769	0,866
51,200	-6,771	0,867
51,250	-6,772	0,867
51,300	-6,772	0,867
51,350	-6,773	0,866
51,400	-6,773	0,868
51,450	-6,773	0,866
51,500	-6,773	0,867
51,550	-6,774	0,866
51,600	-6,773	0,868
51,650	-6,774	0,866
51,700	-6,773	0,868
51,750	-6,774	0,866
51,800	-6,774	0,867
51,850	-6,774	0,866
51,900	-6,774	0,868
51,950	-6,774	0,867
52,000	-6,774	0,868
52,050	-6,774	0,866
52,100	-6,774	0,867
52,150	-6,774	0,867
52,200	-6,774	0,868
52,250	-6,775	0,866
52,300	-6,774	0,867
52,350	-6,775	0,866
52,400	-6,774	0,867
52,450	-6,775	0,866
52,500	-6,774	0,868
52,550	-6,775	0,866
52,600	-6,774	0,867
52,650	-6,775	0,867
52,700	-6,775	0,868
52,750	-6,775	0,866
52,800	-6,774	0,868
52,850	-6,775	0,866
52,900	-6,775	0,868
52,950	-6,775	0,866
53,000	-6,775	0,867
53,050	-6,775	0,866
53,100	-6,775	0,868
53,150	-6,776	0,866
53,200	-6,774	0,868
53,250	-6,775	0,866
53,300	-6,775	0,867
53,350	-6,775	0,866
53,400	-6,774	0,868
53,450	-6,775	0,866
53,500	-6,775	0,867
53,550	-6,776	0,866
53,600	-6,775	0,867
53,650	-6,775	0,867
53,700	-6,775	0,868
53,750	-6,776	0,866
53,800	-6,775	0,867
53,850	-6,776	0,866
53,900	-6,775	0,867
53,950	-6,776	0,866
54,000	-6,775	0,868
54,050	-6,776	0,866
54,100	-6,775	0,867
54,150	-6,776	0,867
54,200	-6,776	0,867
54,250	-6,776	0,866
54,300	-6,775	0,868
54,350	-6,776	0,866
54,400	-6,776	0,867
54,450	-6,777	0,866
54,500	-6,776	0,867
54,550	-6,777	0,866
54,600	-6,776	0,867
54,650	-6,777	0,866
54,700	-6,777	0,867
54,750	-6,777	0,866
54,800	-6,776	0,867
54,850	-6,777	0,866
54,900	-6,776	0,867
54,950	-6,776	0,867
55,000	-6,776	0,868
55,050	-6,777	0,866
55,100	-6,776	0,868
55,150	-6,776	0,866
55,200	-6,776	0,868
55,250	-6,777	0,866
55,300	-6,776	0,867
55,350	-6,777	0,866
55,400	-6,776	0,867
55,450	-6,777	0,866
55,500	-6,776	0,867
55,550	-6,777	0,866
55,600	-6,772	0,867
55,650	-6,739	0,866
55,700	-6,697	0,867
55,750	-6,665	0,866
55,800	-6,642	0,868
55,850	-6,633	0,866
55,900	-6,627	0,867
55,950	-6,611	0,866
56,000	-6,589	0,867
56,050	-6,571	0,866
56,100	-6,562	0,867
56,150	-6,554	0,866
56,200	-6,538	0,867
56,250	-6,537	0,867
56,300	-6,537	0,867
56,350	-6,537	0,866
56,400	-6,537	0,868
56,450	-6,537	0,866
56,500	-6,537	0,867
56,550	-6,534	0,866
56,600	-6,527	0,867
56,650	-6,526	0,866
56,700	-6,521	0,867
56,750	-6,491	0,866
56,800	-6,468	0,867
56,850	-6,457	0,866
56,900	-6,450	0,867
56,950	-6,447	0,866
57,000	-6,442	0,868
57,050	-6,425	0,866
57,100	-6,388	0,867
57,150	-6,360	0,866
57,200	-6,320	0,867
57,250	-6,269	0,866
57,300	-6,244	0,867
57,350	-6,211	0,866
57,400	-6,184	0,867
57,450	-6,157	0,866
57,500	-6,139	0,867
57,550	-6,106	0,866
57,600	-6,070	0,867
57,650	-6,050	0,866
57,700	-6,029	0,867
57,750	-6,009	0,866
57,800	-5,979	0,867
57,850	-5,956	0,866
57,900	-5,925	0,867
57,950	-5,890	0,866
58,000	-5,856	0,867
58,050	-5,830	0,866
58,100	-5,800	0,867
58,150	-5,776	0,866
58,200	-5,763	0,867
58,250	-5,755	0,866
58,300	-5,748	0,867
58,350	-5,736	0,866
58,400	-5,718	0,867
58,450	-5,706	0,866
58,500	-5,695	0,867
58,550	-5,684	0,866
58,600	-5,669	0,867
58,650	-5,649	0,866
58,700	-5,639	0,867
58,750	-5,624	0,866
58,800	-5,607	0,867
58,850	-5,597	0,866
58,900	-5,592	0,867
58,950	-5,580	0,866
59,000	-5,556	0,867
59,050	-5,530	0,866
59,100	-5,506	0,867
59,150	-5,485	0,865
59,200	-5,466	0,867
59,250	-5,452	0,866
59,300	-5,437	0,867
59,350	-5,421	0,866
59,400	-5,405	0,866
59,450	-5,375	0,866
59,500	-5,342	0,867
59,550	-5,326	0,866
59,600	-5,289	0,867
59,650	-5,269	0,866
59,700	-5,266	0,867
59,750	-5,265	0,866
59,800	-5,266	0,867
59,850	-5,265	0,866
59,900	-5,265	0,867
59,950	-5,265	0,866
60,000	-5,265	0,867
60,050	-5,265	0,866
60,100	-5,266	0,867
60,150	-5,265	0,866
60,200	-5,266	0,867
60,250	-5,265	0,866
60,300	-5,262	0,867
60,350	-5,239	0,866
60,400	-5,145	0,867
60,450	-5,092	0,866
60,500	-5,054	0,867
60,550	-5,012	0,866
60,600	-4,991	0,867
60,650	-4,975	0,866
60,700	-4,967	0,867
60,750	-4,966	0,865
60,800	-4,937	0,867
60,850	-4,916	0,866
60,900	-4,905	0,867
60,950	-4,879	0,866
61,000	-4,866	0,867
61,050	-4,857	0,866
61,100	-4,838	0,867
61,150	-4,829	0,866
61,200	-4,813	0,867
61,250	-4,797	0,866
61,300	-4,781	0,867
61,350	-4,745	0,866
61,400	-4,710	0,867
61,450	-4,692	0,866
61,500	-4,663	0,867
61,550	-4,638	0,866
61,600	-4,602	0,867
61,650	-4,556	0,865
61,700	-4,519	0,866
61,750	-4,495	0,866
61,800	-4,470	0,867
61,850	-4,450	0,866
61,900	-4,435	0,867
61,950	-4,415	0,866
62,000	-4,393	0,866
62,050	-4,378	0,866
62,100	-4,369	0,867
62,150	-4,357	0,866
62,200	-4,339	0,866
62,250	-4,311	0,866
62,300	-4,295	0,867
62,350	-4,276	0,865
62,400	-4,255	0,867
62,450	-4,240	0,866
62,500	-4,228	0,866
62,550	-4,214	0,866
62,600	-4,199	0,866
62,650	-4,177	0,866
62,700	-4,161	0,867
62,750	-4,152	0,866
62,800	-4,138	0,867
62,850	-4,103	0,866
62,900	-4,065	0,866
62,950	-4,031	0,866
63,000	-4,010	0,866
63,050	-3,997	0,866
63,100	-3,999	0,866
63,150	-4,000	0,866
63,200	-3,999	0,867
63,250	-4,000	0,866
63,300	-4,000	0,866
63,350	-4,000	0,866
63,400	-3,999	0,866
63,450	-3,999	0,866
63,500	-3,995	0,866
63,550	-3,967	0,866
63,600	-3,939	0,866
63,650	-3,906	0,866
63,700	-3,872	0,866
63,750	-3,841	0,865
63,800	-3,821	0,866
63,850	-3,791	0,865
63,900	-3,767	0,866
63,950	-3,752	0,866
64,000	-3,737	0,866
64,050	-3,710	0,865
64,100	-3,686	0,866
64,150	-3,663	0,866
64,200	-3,647	0,866
64,250	-3,624	0,865
64,300	-3,589	0,866
64,350	-3,566	0,865
64,400	-3,538	0,866
64,450	-3,507	0,865
64,500	-3,474	0,866
64,550	-3,448	0,866
64,600	-3,432	0,866
64,650	-3,411	0,865
64,700	-3,372	0,866
64,750	-3,335	0,865
64,800	-3,297	0,866
64,850	-3,261	0,865
64,900	-3,234	0,866
64,950	-3,208	0,865
65,000	-3,195	0,866
65,050	-3,183	0,866
65,100	-3,167	0,866
65,150	-3,149	0,865
65,200	-3,128	0,866
65,250	-3,107	0,865
65,300	-3,093	0,866
65,350	-3,061	0,865
65,400	-3,030	0,866
65,450	-2,995	0,865
65,500	-2,956	0,866
65,550	-2,922	0,865
65,600	-2,909	0,866
65,650	-2,911	0,865
65,700	-2,914	0,866
65,750	-2,913	0,865
65,800	-2,917	0,866
65,850	-2,925	0,865
65,900	-2,925	0,866
65,950	-2,925	0,865
66,000	-2,925	0,866
66,050	-2,924	0,865
66,100	-2,924	0,866
66,150	-2,925	0,865
66,200	-2,924	0,866
66,250	-2,884	0,865
66,300	-2,788	0,866
66,350	-2,721	0,865
66,400	-2,673	0,866
66,450	-2,636	0,865
66,500	-2,615	0,865
66,550	-2,604	0,865
66,600	-2,586	0,866
66,650	-2,552	0,865
66,700	-2,535	0,865
66,750	-2,533	0,865
66,800	-2,526	0,865
66,850	-2,503	0,865
66,900	-2,481	0,865
66,950	-2,465	0,865
67,000	-2,448	0,866
67,050	-2,427	0,865
67,100	-2,406	0,866
67,150	-2,391	0,865
67,200	-2,384	0,865
67,250	-2,364	0,865
67,300	-2,340	0,865
67,350	-2,327	0,865
67,400	-2,324	0,865
67,450	-2,307	0,865
67,500	-2,288	0,865
67,550	-2,275	0,865
67,600	-2,266	0,865
67,650	-2,248	0,865
67,700	-2,227	0,865
67,750	-2,214	0,865
67,800	-2,207	0,865
67,850	-2,197	0,865
67,900	-2,184	0,865
67,950	-2,173	0,865
68,000	-2,165	0,865
68,050	-2,149	0,865
68,100	-2,124	0,865
68,150	-2,105	0,865
68,200	-2,099	0,865
68,250	-2,094	0,865
68,300	-2,071	0,865
68,350	-2,038	0,865
68,400	-2,017	0,865
68,450	-1,982	0,865
68,500	-1,959	0,865
68,550	-1,946	0,865
68,600	-1,933	0,865
68,650	-1,914	0,865
68,700	-1,905	0,865
68,750	-1,883	0,865
68,800	-1,870	0,865
68,850	-1,870	0,865
68,900	-1,856	0,865
68,950	-1,840	0,864
69,000	-1,835	0,865
69,050	-1,832	0,864
69,100	-1,828	0,865
69,150	-1,826	0,865
69,200	-1,827	0,864
69,250	-1,826	0,865
69,300	-1,827	0,865
69,350	-1,827	0,864
69,400	-1,827	0,865
69,450	-1,829	0,864
69,500	-1,828	0,864
69,550	-1,800	0,865
69,600	-1,767	0,865
69,650	-1,735	0,865
69,700	-1,698	0,864
69,750	-1,665	0,865
69,800	-1,628	0,865
69,850	-1,609	0,865
69,900	-1,587	0,865
69,950	-1,559	0,864
70,000	-1,540	0,864
70,050	-1,517	0,865
70,100	-1,495	0,864
70,150	-1,478	0,864
70,200	-1,458	0,864
70,250	-1,440	0,864
70,300	-1,417	0,864
70,350	-1,390	0,864
70,400	-1,353	0,864
70,450	-1,292	0,865
70,500	-1,243	0,864
70,550	-1,200	0,864
70,600	-1,152	0,864
70,650	-1,116	0,864
70,700	-1,088	0,864
70,750	-1,060	0,864
70,800	-1,011	0,864
70,850	-0,961	0,864
70,900	-0,948	0,864
70,950	-0,947	0,864
71,000	-0,947	0,864
71,050	-0,947	0,864
71,100	-0,947	0,864
71,150	-0,947	0,864
71,200	-0,947	0,864
71,250	-0,947	0,864
71,300	-0,947	0,864
71,350	-0,947	0,864
71,400	-0,947	0,864
71,450	-0,947	0,864
71,500	-0,935	0,864
71,550	-0,892	0,864
71,600	-0,853	0,864
71,650	-0,772	0,864
71,700	-0,717	0,863
71,750	-0,704	0,864
71,800	-0,671	0,864
71,850	-0,640	0,864
71,900	-0,618	0,864
71,950	-0,591	0,864
72,000	-0,562	0,863
72,050	-0,538	0,863
72,100	-0,515	0,863
72,150	-0,486	0,864
72,200	-0,456	0,863
72,250	-0,429	0,864
72,300	-0,393	0,864
72,350	-0,346	0,863
72,400	-0,318	0,863
72,450	-0,301	0,863
72,500	-0,278	0,863
72,550	-0,228	0,863
72,600	-0,191	0,863
72,650	-0,179	0,863
72,700	-0,163	0,863
72,750	-0,135	0,863
72,800	-0,109	0,863
72,850	-0,096	0,863
72,900	-0,091	0,863
72,950	-0,083	0,863
73,000	-0,073	0,863
73,050	-0,068	0,863
73,100	-0,056	0,863
73,150	-0,041	0,863
73,200	-0,028	0,863
73,250	-0,020	0,863
73,300	-0,014	0,863
73,350	-0,005	0,863
73,400	0,002	0,863
73,450	0,003	0,863
73,500	0,004	0,863
73,550	0,004	0,863
73,600	0,004	0,862
73,650	0,004	0,863
73,700	0,004	0,863
73,750	0,004	0,863
73,800	0,004	0,862
73,850	0,004	0,863
73,900	0,004	0,863
73,950	0,004	0,863
74,000	0,004	0,863
74,050	0,004	0,863
74,100	0,004	0,863
74,150	0,004	0,863
74,200	0,004	0,863
74,250	0,004	0,863
74,300	0,004	0,863
74,350	0,004	0,863
74,400	0,004	0,863
74,450	0,004	0,863
74,500	0,004	0,863
74,550	0,004	0,863
74,600	0,004	0,862
74,650	0,004	0,863
74,700	0,004	0,863
74,750	0,004	0,863
74,800	0,004	0,862
74,850	0,004	0,863
74,900	0,004	0,862
74,950	0,004	0,863
75,000	0,004	0,863
75,050	0,004	0,863
75,100	0,004	0,862
75,150	0,004	0,863
75,200	0,004	0,863
75,250	0,004	0,863
75,300	0,004	0,862
75,350	0,004	0,863
75,400	0,004	0,862
75,450	0,004	0,863
75,500	0,004	0,862
75,550	8,405E-4	0,863
75,600	-4,718E-4	0,863
75,650	-4,755E-4	0,863
75,700	-6,305E-4	0,863
75,750	-4,559E-4	0,863
75,800	-8,099E-4	0,863
75,850	-2,814E-4	0,863
75,900	-8,563E-4	0,862
75,950	-6,964E-4	0,863
76,000	-8,234E-4	0,863
76,050	-4,132E-4	0,863
76,100	-5,927E-4	0,863
76,150	-6,012E-4	0,863
76,200	-8,185E-4	0,863
76,250	-4,095E-4	0,863
76,300	-7,452E-4	0,862
76,350	-5,560E-4	0,863
76,400	-8,539E-4	0,862
76,450	-3,949E-4	0,863
76,500	-8,881E-4	0,862
76,550	-2,509E-4	0,863
76,600	-0,001	0,862
76,650	-4,352E-4	0,863
76,700	-7,562E-4	0,863
76,750	-3,668E-4	0,863
76,800	-7,477E-4	0,863
76,850	-2,985E-4	0,863
76,900	-6,122E-4	0,863
76,950	-2,216E-4	0,863
77,000	-4,816E-4	0,863
77,050	-2,740E-4	0,863
77,100	-6,549E-4	0,863
77,150	5,756E-4	0,863
77,200	0,013	0,863
77,250	0,019	0,863
77,300	0,023	0,863
77,350	0,030	0,863
77,400	0,038	0,862
77,450	0,057	0,863
77,500	0,101	0,863
77,550	0,131	0,863
77,600	0,133	0,862
77,650	0,134	0,863
77,700	0,133	0,862
77,750	0,133	0,863
77,800	0,133	0,862
77,850	0,134	0,863
77,900	0,137	0,862
77,950	0,148	0,862
78,000	0,164	0,862
78,050	0,178	0,862
78,100	0,181	0,862
78,150	0,195	0,862
78,200	0,213	0,862
78,250	0,222	0,863
78,300	0,240	0,862
78,350	0,263	0,863
78,400	0,285	0,862
78,450	0,342	0,863
78,500	0,371	0,862
78,550	0,398	0,862
78,600	0,432	0,862
78,650	0,434	0,862
78,700	0,434	0,862
78,750	0,435	0,862
78,800	0,437	0,862
78,850	0,441	0,862
78,900	0,440	0,862
78,950	0,442	0,862
79,000	0,443	0,862
79,050	0,443	0,862
79,100	0,443	0,862
79,150	0,445	0,862
79,200	0,452	0,862
79,250	0,465	0,862
79,300	0,474	0,862
79,350	0,485	0,862
79,400	0,491	0,862
79,450	0,498	0,862
79,500	0,503	0,862
79,550	0,512	0,862
79,600	0,524	0,861
79,650	0,529	0,862
79,700	0,540	0,861
79,750	0,547	0,862
79,800	0,561	0,862
79,850	0,567	0,862
79,900	0,570	0,862
79,950	0,588	0,862
80,000	0,595	0,861
80,050	0,607	0,862
80,100	0,612	0,861
80,150	0,626	0,862
80,200	0,629	0,861
80,250	0,630	0,862
80,300	0,631	0,861
80,350	0,642	0,861
80,400	0,645	0,861
80,450	0,650	0,861
80,500	0,659	0,861
80,550	0,657	0,861
80,600	0,656	0,861
80,650	0,657	0,861
80,700	0,667	0,861
80,750	0,670	0,861
80,800	0,670	0,861
80,850	0,680	0,861
80,900	0,680	0,861
80,950	0,682	0,861
81,000	0,684	0,861
81,050	0,693	0,861
81,100	0,701	0,861
81,150	0,704	0,861
81,200	0,718	0,861
81,250	0,721	0,861
81,300	0,729	0,861
81,350	0,730	0,861
81,400	0,737	0,861
81,450	0,742	0,861
81,500	0,747	0,861
81,550	0,753	0,861
81,600	0,754	0,861
81,650	0,761	0,861
81,700	0,763	0,861
81,750	0,770	0,861
81,800	0,772	0,861
81,850	0,774	0,860
81,900	0,777	0,860
81,950	0,778	0,861
82,000	0,784	0,860
82,050	0,793	0,860
82,100	0,793	0,860
82,150	0,795	0,860
82,200	0,801	0,860
82,250	0,811	0,860
82,300	0,816	0,860
82,350	0,818	0,860
82,400	0,821	0,860
82,450	0,832	0,860
82,500	0,834	0,860
82,550	0,834	0,860
82,600	0,833	0,860
82,650	0,831	0,860
82,700	0,829	0,860
82,750	0,829	0,860
82,800	0,826	0,860
82,850	0,830	0,860
82,900	0,831	0,861
82,950	0,833	0,860
83,000	0,833	0,860
83,050	0,834	0,860
83,100	0,834	0,860
83,150	0,836	0,860
83,200	0,837	0,860
83,250	0,838	0,860
83,300	0,838	0,860
83,350	0,840	0,860
83,400	0,853	0,860
83,450	0,859	0,860
83,500	0,873	0,860
83,550	0,881	0,860
83,600	0,890	0,860
83,650	0,925	0,860
83,700	0,940	0,859
83,750	0,941	0,859
83,800	0,942	0,859
83,850	0,944	0,859
83,900	0,950	0,859
83,950	0,952	0,859
84,000	0,960	0,859
84,050	0,974	0,858
84,100	0,981	0,858
84,150	0,985	0,858
84,200	0,993	0,857
84,250	0,994	0,857
84,300	0,995	0,856
84,350	1,004	0,856
84,400	1,013	0,855
84,450	1,013	0,854
84,500	1,013	0,854
84,550	1,013	0,853
84,600	1,020	0,853
84,650	1,029	0,851
84,700	1,030	0,850
84,750	1,037	0,849
84,800	1,037	0,848
84,850	1,044	0,846
84,900	1,054	0,844
84,950	1,054	0,842
85,000	1,053	0,840
85,050	1,058	0,837
85,100	1,063	0,834
85,150	1,060	0,830
85,200	1,057	0,827
85,250	1,055	0,822
85,300	1,052	0,818
85,350	1,054	0,814
85,400	1,058	0,809
85,450	1,056	0,804
85,500	1,054	0,799
85,550	1,052	0,794
85,600	1,050	0,789
85,650	1,051	0,783
85,700	1,052	0,778
85,750	1,051	0,772
85,800	1,049	0,766
85,850	1,049	0,759
85,900	1,049	0,754
85,950	1,049	0,748
86,000	1,048	0,742
86,050	1,048	0,736
86,100	1,048	0,730
86,150	1,048	0,723
86,200	1,049	0,717
86,250	1,050	0,711
86,300	1,051	0,705
86,350	1,052	0,699
86,400	1,051	0,693
86,450	1,053	0,687
86,500	1,053	0,681
86,550	1,053	0,674
86,600	1,053	0,668
86,650	1,053	0,662
86,700	1,052	0,656
86,750	1,052	0,649
86,800	1,053	0,643
86,850	1,054	0,637
86,900	1,056	0,631
86,950	1,059	0,625
87,000	1,061	0,619
87,050	1,063	0,612
87,100	1,065	0,606
87,150	1,066	0,600
87,200	1,068	0,594
87,250	1,072	0,588
87,300	1,074	0,582
87,350	1,076	0,576
87,400	1,077	0,570
87,450	1,078	0,565
87,500	1,080	0,558
87,550	1,082	0,552
87,600	1,083	0,547
87,650	1,083	0,540
87,700	1,085	0,535
87,750	1,086	0,528
87,800	1,088	0,523
87,850	1,089	0,517
87,900	1,090	0,511
87,950	1,091	0,505
88,000	1,092	0,499
88,050	1,095	0,493
88,100	1,096	0,488
88,150	1,097	0,482
88,200	1,099	0,477
88,250	1,101	0,471
88,300	1,102	0,465
88,350	1,105	0,459
88,400	1,107	0,454
88,450	1,109	0,447
88,500	1,113	0,442
88,550	1,113	0,435
88,600	1,113	0,430
88,650	1,115	0,423
88,700	1,116	0,417
88,750	1,116	0,411
88,800	1,118	0,404
88,850	1,118	0,397
88,900	1,117	0,390
88,950	1,118	0,383
89,000	1,119	0,376
89,050	1,119	0,368
89,100	1,118	0,360
89,150	1,118	0,352
89,200	1,119	0,345
89,250	1,121	0,337
89,300	1,125	0,330
89,350	1,126	0,322
89,400	1,126	0,314
89,450	1,126	0,306
89,500	1,127	0,299
89,550	1,130	0,291
89,600	1,132	0,283
89,650	1,133	0,275
89,700	1,137	0,268
89,750	1,141	0,260
89,800	1,146	0,254
89,850	1,148	0,246
89,900	1,151	0,239
89,950	1,154	0,232
90,000	1,157	0,225
90,050	1,158	0,217
90,100	1,160	0,211
90,150	1,163	0,203
90,200	1,166	0,197
90,250	1,168	0,190
90,300	1,173	0,183
90,350	1,174	0,175
90,400	1,176	0,168
90,450	1,181	0,161
90,500	1,182	0,154
90,550	1,183	0,146
90,600	1,183	0,139
90,650	1,184	0,131
90,700	1,187	0,124
90,750	1,194	0,116
90,800	1,201	0,108
90,850	1,204	0,100
90,900	1,208	0,092
90,950	1,211	0,084
91,000	1,212	0,077
91,050	1,215	0,069
91,100	1,220	0,062
91,150	1,231	0,054
91,200	1,237	0,046
91,250	1,249	0,039
91,300	1,262	0,032
91,350	1,281	0,025
91,400	1,297	0,020
91,450	1,321	0,016
91,500	1,353	0,012
91,550	1,374	0,009
91,600	1,391	0,006
91,650	1,414	0,005
91,700	1,438	0,004
91,750	1,444	0,003
91,800	1,452	0,003
91,850	1,468	0,003
91,900	1,474	0,003
91,950	1,476	0,003
92,000	1,476	0,004
92,050	1,477	0,003
92,100	1,477	0,004
92,150	1,477	0,003
92,200	1,477	0,003
92,250	1,477	0,003
92,300	1,477	0,003
92,350	1,488	0,003
92,400	1,493	0,004
92,450	1,512	0,003
92,500	1,549	0,003
92,550	1,562	0,003
92,600	1,570	0,003
92,650	1,594	0,002
92,700	1,617	0,003
92,750	1,620	0,002
92,800	1,620	0,003
92,850	1,616	0,003
92,900	1,612	0,003
92,950	1,613	0,003
93,000	1,612	0,003
93,050	1,612	0,003
93,100	1,612	0,003
93,150	1,612	0,002
93,200	1,612	0,003
93,250	1,620	0,003
93,300	1,670	0,003
93,350	1,749	0,002
93,400	1,815	0,003
93,450	1,862	0,002
93,500	1,874	0,003
93,550	1,910	0,002
93,600	1,944	0,002
93,650	1,962	0,002
93,700	1,983	0,002
93,750	2,019	0,002
93,800	2,052	0,002
93,850	2,061	0,002
93,900	2,099	0,002
93,950	2,143	0,002
94,000	2,148	0,002
94,050	2,168	0,002
94,100	2,209	0,002
94,150	2,222	0,001
94,200	2,234	0,002
94,250	2,249	0,001
94,300	2,255	0,002
94,350	2,256	0,001
94,400	2,256	0,002
94,450	2,256	0,001
94,500	2,271	0,002
94,550	2,287	0,001
94,600	2,288	0,002
94,650	2,301	0,001
94,700	2,305	0,002
94,750	2,314	0,001
94,800	2,317	0,002
94,850	2,313	0,001
94,900	2,313	0,002
94,950	2,310	0,001
95,000	2,309	0,002
95,050	2,309	0,001
95,100	2,309	0,002
95,150	2,309	0,001
95,200	2,309	0,002
95,250	2,336	0,001
95,300	2,394	0,002
95,350	2,437	0,001
95,400	2,458	0,002
95,450	2,483	0,001
95,500	2,520	0,002
95,550	2,543	9,202E-4
95,600	2,543	0,002
95,650	2,554	0,001
95,700	2,564	0,002
95,750	2,572	0,001
95,800	2,603	0,001
95,850	2,622	0,001
95,900	2,630	0,002
95,950	2,644	7,957E-4
96,000	2,673	0,001
96,050	2,700	0,001
96,100	2,700	0,002
96,150	2,722	8,701E-4
96,200	2,744	0,001
96,250	2,747	8,823E-4
96,300	2,757	0,001
96,350	2,781	8,359E-4
96,400	2,793	0,001
96,450	2,806	0,001
96,500	2,818	0,002
96,550	2,837	7,444E-4
96,600	2,883	0,001
96,650	2,961	8,872E-4
96,700	3,007	0,001
96,750	3,004	6,162E-4
96,800	3,002	0,001
96,850	3,002	7,957E-4
96,900	3,003	0,001
96,950	3,004	5,466E-4
97,000	3,004	0,002
97,050	3,004	6,589E-4
97,100	3,004	0,001
97,150	3,007	5,125E-4
97,200	3,036	0,001
97,250	3,055	4,673E-4
97,300	3,088	0,001
97,350	3,127	3,818E-4
97,400	3,152	0,001
97,450	3,179	5,430E-4
97,500	3,209	9,946E-4
97,550	3,252	3,562E-4
97,600	3,281	0,001
97,650	3,302	5,320E-4
97,700	3,324	9,531E-4
97,750	3,335	4,856E-4
97,800	3,340	8,701E-4
97,850	3,354	4,282E-4
97,900	3,371	0,001
97,950	3,383	5,295E-4
98,000	3,398	9,666E-4
98,050	3,409	2,695E-4
98,100	3,417	8,091E-4
98,150	3,435	6,689E-5
98,200	3,448	9,482E-4
98,250	3,461	2,036E-4
98,300	3,478	9,580E-4
98,350	3,507	2,292E-4
98,400	3,504	0,001
98,450	3,501	2,197E-6
98,500	3,502	7,932E-4
98,550	3,502	6,736E-4
98,600	3,502	0,001
98,650	3,503	2,793E-4
98,700	3,506	7,249E-4
98,750	3,507	1,426E-4
98,800	3,503	8,530E-4
98,850	3,513	2,109E-4
98,900	3,546	7,944E-4
98,950	3,568	5,808E-4
99,000	3,570	0,001
99,050	3,578	1,731E-4
99,100	3,588	0,001
99,150	3,634	1,890E-4
99,200	3,675	0,001
99,250	3,708	1,841E-4
99,300	3,755	7,920E-4
99,350	3,768	-2,710E-5
99,400	3,784	7,664E-4
99,450	3,812	9,741E-5
99,500	3,830	7,871E-4
99,550	3,848	-1,174E-4
99,600	3,870	5,210E-4
99,650	3,890	2,695E-4
99,700	3,903	8,250E-4
99,750	3,904	1,768E-4
99,800	3,904	6,113E-4
99,850	3,904	-1,968E-4
99,900	3,904	6,333E-4
99,950	3,904	2,231E-4
100,000	3,904	8,127E-4
100,050	3,904	1,938E-4
100,100	3,904	6,931E-4
100,150	3,904	-6,348E-6
100,200	3,904	8,250E-4
100,250	3,904	2,781E-4
100,300	3,904	6,907E-4
100,350	3,911	-1,040E-4
100,400	3,928	8,787E-4
100,450	3,928	-5,151E-5
100,500	3,928	7,297E-4
100,550	3,928	3,586E-4
100,600	3,928	8,469E-4
100,650	3,941	-1,978E-5
100,700	3,961	8,481E-4
100,750	4,025	-2,954E-5
100,800	4,074	5,991E-4
100,850	4,077	3,281E-4
100,900	4,104	8,542E-4
100,950	4,128	-2,456E-4
101,000	4,137	8,713E-4
101,050	4,169	-5,640E-5
101,100	4,180	4,392E-4
101,150	4,181	-6,616E-5
101,200	4,203	7,810E-4
101,250	4,218	2,417E-5
101,300	4,218	5,063E-4
101,350	4,235	1,365E-4
101,400	4,273	7,456E-4
101,450	4,290	-1,431E-4
101,500	4,307	4,368E-4
101,550	4,311	-7,593E-5
101,600	4,309	3,013E-4
101,650	4,318	-4,419E-5
101,700	4,345	1,877E-4
101,750	4,350	6,079E-5
101,800	4,373	3,550E-4
101,850	4,388	-1,113E-4
101,900	4,397	5,662E-4
101,950	4,416	-2,017E-4
102,000	4,418	2,988E-4
102,050	4,420	3,394E-5
102,100	4,437	5,381E-4
102,150	4,443	-4,702E-4
102,200	4,442	5,759E-4
102,250	4,439	-4,419E-5
102,300	4,443	3,806E-4
102,350	4,522	-4,482E-4
102,400	4,625	4,478E-4
102,450	4,697	-3,640E-4
102,500	4,710	3,062E-4
102,550	4,711	-2,908E-4
102,600	4,711	6,235E-4
102,650	4,711	-2,847E-4
102,700	4,711	1,926E-4
102,750	4,711	-7,351E-4
102,800	4,712	3,965E-4
102,850	4,732	-6,179E-4
102,900	4,745	3,271E-5
102,950	4,777	-3,726E-4
103,000	4,798	1,035E-4
103,050	4,804	-3,933E-4
103,100	4,832	2,927E-4
103,150	4,859	-1,748E-4
103,200	4,869	3,452E-4
103,250	4,889	-6,887E-4
103,300	4,916	4,319E-4
103,350	4,921	-5,166E-4
103,400	4,941	3,269E-4
103,450	4,970	-4,604E-4
103,500	4,987	3,147E-4
103,550	5,011	-6,509E-4
103,600	5,011	-8,325E-5
103,650	5,021	-5,459E-4
103,700	5,041	2,915E-4
103,750	5,076	-4,763E-4
103,800	5,153	2,207E-4
103,850	5,243	-5,239E-4
103,900	5,276	-1,296E-4
103,950	5,294	-8,840E-4
104,000	5,299	2,417E-5
104,050	5,303	-4,934E-4
104,100	5,324	-3,564E-5
104,150	5,354	-5,325E-4
104,200	5,390	1,511E-4
104,250	5,396	-8,193E-4
104,300	5,398	-2,344E-5
104,350	5,412	-6,301E-4
104,400	5,432	4,858E-5
104,450	5,452	-5,789E-4
104,500	5,479	1,074E-5
104,550	5,508	-9,512E-4
104,600	5,531	-1,980E-4
104,650	5,555	-2,566E-4
104,700	5,580	-4,202E-4
104,750	5,600	-6,411E-4
104,800	5,628	-1,992E-4
104,850	5,693	-9,756E-4
104,900	5,766	-2,822E-4
104,950	5,777	-7,144E-4
105,000	5,773	-5,325E-4
105,050	5,773	-0,001
105,100	5,774	-7,349E-5
105,150	5,774	-8,523E-4
105,200	5,773	-2,480E-4
105,250	5,774	-9,561E-4
105,300	5,773	-5,020E-4
105,350	5,773	-9,658E-4
105,400	5,773	-2,139E-4
105,450	5,773	-9,841E-4
105,500	5,774	-6,616E-5
105,550	5,774	-9,463E-4
105,600	5,776	-2,261E-4
105,650	5,789	-8,096E-4
105,700	5,827	-3,237E-4
105,750	5,855	-7,205E-4
105,800	5,868	1,807E-5
105,850	5,886	-0,001
105,900	5,908	-2,712E-4
105,950	5,924	-6,130E-4
106,000	5,939	-3,066E-4
106,050	5,998	-8,865E-4
106,100	6,043	-2,441E-7
106,150	6,070	-8,840E-4
106,200	6,091	1,694E-4
106,250	6,111	-0,001
106,300	6,129	-3,091E-4
106,350	6,147	-0,001
106,400	6,172	-1,956E-4
106,450	6,209	-0,001
106,500	6,232	-3,604E-4
106,550	6,236	-0,001
106,600	6,253	-4,727E-4
106,650	6,275	-9,084E-4
106,700	6,281	-5,972E-4
106,750	6,288	-0,001
106,800	6,302	-3,384E-4
106,850	6,311	-6,851E-4
106,900	6,318	-2,517E-4
106,950	6,322	-9,512E-4
107,000	6,323	-3,958E-4
107,050	6,327	-7,375E-4
107,100	6,339	-5,984E-4
107,150	6,348	-0,001
107,200	6,377	-4,788E-4
107,250	6,390	-9,146E-4
107,300	6,393	-4,702E-4
107,350	6,404	-0,001
107,400	6,428	-6,313E-4
107,450	6,456	-0,001
107,500	6,476	-5,154E-4
107,550	6,496	-0,001
107,600	6,507	-2,883E-4
107,650	6,520	-0,001
107,700	6,528	-4,702E-4
107,750	6,546	-0,001
107,800	6,566	-3,896E-4
107,850	6,580	-0,001
107,900	6,592	-5,569E-4
107,950	6,613	-0,001
108,000	6,634	-3,799E-4
108,050	6,648	-0,001
108,100	6,654	-5,508E-4
108,150	6,674	-0,001
108,200	6,695	-5,068E-4
108,250	6,719	-0,001
108,300	6,747	-2,456E-4
108,350	6,752	-9,939E-4
108,400	6,752	-4,043E-4
108,450	6,752	-0,001
108,500	6,752	-4,421E-4
108,550	6,752	-0,001
108,600	6,752	-2,627E-4
108,650	6,752	-0,001
108,700	6,752	-6,594E-4
108,750	6,755	-0,001
108,800	6,759	-2,627E-4
108,850	6,762	-0,001
108,900	6,770	-3,652E-4
108,950	6,776	-0,001
109,000	6,778	-6,082E-4
109,050	6,780	-0,001
109,100	6,780	-5,435E-4
109,150	6,781	-0,001
109,200	6,781	-5,544E-4
109,250	6,782	-0,001
109,300	6,781	-6,509E-4
109,350	6,782	-0,001
109,400	6,781	-3,872E-4
109,450	6,782	-0,001
109,500	6,782	-1,394E-4
109,550	6,782	-0,001
109,600	6,782	-1,785E-4
109,650	6,782	-0,001
109,700	6,782	-1,638E-4
109,750	6,782	-8,914E-4
109,800	6,782	-3,884E-4
109,850	6,782	-0,001
109,900	6,782	-6,216E-4
109,950	6,782	-0,001
110,000	6,782	-3,140E-4
110,050	6,782	-0,001
110,100	6,782	-2,615E-4
110,150	6,782	-0,001
110,200	6,782	-3,066E-4
110,250	6,782	-0,001
110,300	6,782	-5,154E-4
110,350	6,783	-9,487E-4
110,400	6,782	-3,066E-4
110,450	6,783	-0,001
110,500	6,782	-3,884E-4
110,550	6,783	-7,144E-4
110,600	6,782	-4,287E-4
110,650	6,783	-0,001
110,700	6,782	-4,690E-4
110,750	6,783	-0,001
110,800	6,782	-5,166E-4
110,850	6,783	-0,001
110,900	6,782	-3,909E-4
110,950	6,783	-9,512E-4
111,000	6,782	-3,005E-4
111,050	6,783	-0,001
111,100	6,783	-3,506E-4
111,150	6,783	-0,001
111,200	6,783	-4,409E-4
111,250	6,783	-0,001
111,300	6,783	-3,542E-4
111,350	6,783	-0,001
111,400	6,783	-5,056E-4
111,450	6,783	-0,001
111,500	6,783	-4,275E-4
111,550	6,783	-0,001
111,600	6,783	-1,370E-4
111,650	6,783	-0,001
111,700	6,783	-6,106E-4
111,750	6,783	-0,001
111,800	6,783	-5,239E-4
111,850	6,783	-0,001
111,900	6,783	-3,701E-4
111,950	6,783	-0,001
112,000	6,783	-2,651E-4
112,050	6,783	-0,001
112,100	6,783	-6,741E-4
112,150	6,783	-9,658E-4
112,200	6,783	-1,001E-5
112,250	6,784	-8,315E-4
112,300	6,783	-3,030E-4
112,350	6,784	-6,558E-4
112,400	6,783	-1,150E-4
112,450	6,784	-9,121E-4
112,500	6,783	-2,017E-4
112,550	6,784	-9,561E-4
112,600	6,783	-1,882E-4
112,650	6,784	-8,560E-4
112,700	6,783	-3,359E-4
112,750	6,784	-8,718E-4
112,800	6,783	-3,323E-4
112,850	6,784	-7,546E-4
112,900	6,783	-2,554E-4
112,950	6,784	-0,001
113,000	6,784	-1,614E-4
113,050	6,784	-8,206E-4
113,100	6,783	-4,958E-4
