Zeit (s) Messreihe #10	Spannung, Ch A (V) Messreihe #10	Spannung, Ch B (V) Messreihe #10
0,000	-0,999	-0,228
0,050	-0,998	-0,227
0,100	-0,998	-0,228
0,150	-0,997	-0,227
0,200	-0,997	-0,228
0,250	-0,996	-0,227
0,300	-0,996	-0,228
0,350	-0,997	-0,227
0,400	-0,998	-0,229
0,450	-0,999	-0,227
0,500	-0,998	-0,228
0,550	-0,998	-0,228
0,600	-0,998	-0,228
0,650	-0,997	-0,227
0,700	-0,995	-0,228
0,750	-0,994	-0,227
0,800	-0,995	-0,229
0,850	-0,995	-0,227
0,900	-0,996	-0,228
0,950	-0,998	-0,227
1,000	-0,998	-0,228
1,050	-0,998	-0,227
1,100	-0,997	-0,228
1,150	-0,997	-0,227
1,200	-0,998	-0,228
1,250	-0,998	-0,227
1,300	-0,999	-0,228
1,350	-0,999	-0,227
1,400	-0,999	-0,229
1,450	-0,999	-0,227
1,500	-0,999	-0,228
1,550	-0,999	-0,227
1,600	-0,999	-0,229
1,650	-1,000	-0,227
1,700	-0,999	-0,228
1,750	-1,000	-0,228
1,800	-1,000	-0,229
1,850	-0,999	-0,227
1,900	-0,999	-0,228
1,950	-0,999	-0,227
2,000	-0,999	-0,228
2,050	-0,999	-0,227
2,100	-0,997	-0,229
2,150	-0,993	-0,227
2,200	-0,988	-0,228
2,250	-0,983	-0,227
2,300	-0,979	-0,227
2,350	-0,982	-0,227
2,400	-0,983	-0,228
2,450	-0,986	-0,227
2,500	-0,983	-0,228
2,550	-0,980	-0,226
2,600	-0,982	-0,228
2,650	-0,980	-0,227
2,700	-0,980	-0,228
2,750	-0,980	-0,227
2,800	-0,977	-0,228
2,850	-0,971	-0,226
2,900	-0,968	-0,227
2,950	-0,968	-0,226
3,000	-0,967	-0,227
3,050	-0,967	-0,226
3,100	-0,970	-0,227
3,150	-0,972	-0,226
3,200	-0,974	-0,227
3,250	-0,975	-0,226
3,300	-0,975	-0,227
3,350	-0,974	-0,227
3,400	-0,973	-0,227
3,450	-0,974	-0,226
3,500	-0,975	-0,228
3,550	-0,974	-0,226
3,600	-0,973	-0,227
3,650	-0,973	-0,226
3,700	-0,974	-0,228
3,750	-0,973	-0,226
3,800	-0,970	-0,227
3,850	-0,966	-0,226
3,900	-0,964	-0,227
3,950	-0,959	-0,226
4,000	-0,956	-0,227
4,050	-0,953	-0,226
4,100	-0,950	-0,226
4,150	-0,948	-0,225
4,200	-0,946	-0,226
4,250	-0,947	-0,225
4,300	-0,947	-0,226
4,350	-0,949	-0,225
4,400	-0,950	-0,226
4,450	-0,950	-0,225
4,500	-0,950	-0,226
4,550	-0,951	-0,225
4,600	-0,953	-0,227
4,650	-0,955	-0,226
4,700	-0,956	-0,227
4,750	-0,957	-0,225
4,800	-0,957	-0,227
4,850	-0,957	-0,226
4,900	-0,958	-0,227
4,950	-0,957	-0,225
5,000	-0,957	-0,226
5,050	-0,956	-0,225
5,100	-0,956	-0,227
5,150	-0,954	-0,225
5,200	-0,953	-0,227
5,250	-0,952	-0,225
5,300	-0,950	-0,226
5,350	-0,949	-0,225
5,400	-0,948	-0,226
5,450	-0,947	-0,225
5,500	-0,943	-0,226
5,550	-0,938	-0,225
5,600	-0,933	-0,226
5,650	-0,928	-0,224
5,700	-0,928	-0,225
5,750	-0,929	-0,224
5,800	-0,928	-0,225
5,850	-0,928	-0,224
5,900	-0,928	-0,226
5,950	-0,928	-0,224
6,000	-0,929	-0,225
6,050	-0,929	-0,224
6,100	-0,928	-0,225
6,150	-0,927	-0,224
6,200	-0,927	-0,225
6,250	-0,926	-0,224
6,300	-0,924	-0,225
6,350	-0,922	-0,224
6,400	-0,921	-0,225
6,450	-0,918	-0,224
6,500	-0,914	-0,224
6,550	-0,910	-0,223
6,600	-0,906	-0,224
6,650	-0,903	-0,223
6,700	-0,902	-0,224
6,750	-0,901	-0,223
6,800	-0,898	-0,224
6,850	-0,898	-0,223
6,900	-0,897	-0,224
6,950	-0,899	-0,223
7,000	-0,896	-0,224
7,050	-0,896	-0,223
7,100	-0,896	-0,224
7,150	-0,897	-0,223
7,200	-0,899	-0,224
7,250	-0,898	-0,223
7,300	-0,894	-0,224
7,350	-0,891	-0,223
7,400	-0,890	-0,224
7,450	-0,889	-0,222
7,500	-0,891	-0,224
7,550	-0,888	-0,223
7,600	-0,884	-0,223
7,650	-0,883	-0,222
7,700	-0,882	-0,223
7,750	-0,882	-0,222
7,800	-0,882	-0,223
7,850	-0,883	-0,222
7,900	-0,883	-0,223
7,950	-0,884	-0,222
8,000	-0,884	-0,223
8,050	-0,885	-0,223
8,100	-0,886	-0,223
8,150	-0,884	-0,222
8,200	-0,882	-0,223
8,250	-0,879	-0,222
8,300	-0,880	-0,223
8,350	-0,878	-0,222
8,400	-0,876	-0,223
8,450	-0,876	-0,222
8,500	-0,875	-0,223
8,550	-0,875	-0,222
8,600	-0,874	-0,223
8,650	-0,872	-0,222
8,700	-0,872	-0,223
8,750	-0,871	-0,222
8,800	-0,871	-0,223
8,850	-0,869	-0,222
8,900	-0,868	-0,222
8,950	-0,867	-0,222
9,000	-0,867	-0,222
9,050	-0,865	-0,222
9,100	-0,864	-0,222
9,150	-0,863	-0,221
9,200	-0,862	-0,222
9,250	-0,861	-0,221
9,300	-0,861	-0,222
9,350	-0,858	-0,221
9,400	-0,854	-0,222
9,450	-0,850	-0,221
9,500	-0,850	-0,222
9,550	-0,850	-0,221
9,600	-0,849	-0,221
9,650	-0,850	-0,221
9,700	-0,850	-0,222
9,750	-0,850	-0,221
9,800	-0,852	-0,222
9,850	-0,851	-0,220
9,900	-0,852	-0,222
9,950	-0,852	-0,221
10,000	-0,852	-0,222
10,050	-0,852	-0,221
10,100	-0,852	-0,222
10,150	-0,852	-0,221
10,200	-0,852	-0,222
10,250	-0,850	-0,221
10,300	-0,849	-0,222
10,350	-0,849	-0,221
10,400	-0,849	-0,221
10,450	-0,848	-0,221
10,500	-0,847	-0,221
10,550	-0,846	-0,220
10,600	-0,847	-0,221
10,650	-0,847	-0,221
10,700	-0,847	-0,221
10,750	-0,847	-0,221
10,800	-0,847	-0,221
10,850	-0,848	-0,221
10,900	-0,847	-0,222
10,950	-0,847	-0,221
11,000	-0,848	-0,222
11,050	-0,848	-0,221
11,100	-0,848	-0,221
11,150	-0,848	-0,221
11,200	-0,846	-0,221
11,250	-0,844	-0,221
11,300	-0,843	-0,221
11,350	-0,843	-0,220
11,400	-0,843	-0,221
11,450	-0,842	-0,221
11,500	-0,839	-0,221
11,550	-0,835	-0,220
11,600	-0,832	-0,220
11,650	-0,832	-0,220
11,700	-0,832	-0,221
11,750	-0,832	-0,220
11,800	-0,832	-0,221
11,850	-0,833	-0,220
11,900	-0,832	-0,220
11,950	-0,833	-0,220
12,000	-0,833	-0,221
12,050	-0,833	-0,220
12,100	-0,833	-0,221
12,150	-0,833	-0,220
12,200	-0,833	-0,221
12,250	-0,832	-0,220
12,300	-0,830	-0,221
12,350	-0,829	-0,220
12,400	-0,829	-0,220
12,450	-0,829	-0,220
12,500	-0,828	-0,220
12,550	-0,826	-0,220
12,600	-0,825	-0,220
12,650	-0,825	-0,220
12,700	-0,825	-0,220
12,750	-0,825	-0,220
12,800	-0,825	-0,220
12,850	-0,824	-0,219
12,900	-0,823	-0,220
12,950	-0,823	-0,219
13,000	-0,822	-0,220
13,050	-0,821	-0,219
13,100	-0,818	-0,220
13,150	-0,815	-0,219
13,200	-0,813	-0,220
13,250	-0,812	-0,219
13,300	-0,809	-0,220
13,350	-0,806	-0,219
13,400	-0,802	-0,219
13,450	-0,799	-0,218
13,500	-0,798	-0,219
13,550	-0,798	-0,218
13,600	-0,798	-0,219
13,650	-0,798	-0,219
13,700	-0,796	-0,219
13,750	-0,793	-0,218
13,800	-0,790	-0,219
13,850	-0,789	-0,218
13,900	-0,788	-0,218
13,950	-0,788	-0,218
14,000	-0,787	-0,218
14,050	-0,786	-0,218
14,100	-0,784	-0,218
14,150	-0,783	-0,218
14,200	-0,783	-0,218
14,250	-0,783	-0,218
14,300	-0,783	-0,218
14,350	-0,783	-0,218
14,400	-0,783	-0,218
14,450	-0,783	-0,218
14,500	-0,783	-0,218
14,550	-0,783	-0,218
14,600	-0,783	-0,218
14,650	-0,783	-0,218
14,700	-0,783	-0,218
14,750	-0,783	-0,218
14,800	-0,782	-0,218
14,850	-0,781	-0,217
14,900	-0,779	-0,217
14,950	-0,776	-0,217
15,000	-0,771	-0,217
15,050	-0,768	-0,217
15,100	-0,768	-0,217
15,150	-0,768	-0,217
15,200	-0,768	-0,217
15,250	-0,768	-0,217
15,300	-0,764	-0,217
15,350	-0,762	-0,217
15,400	-0,761	-0,217
15,450	-0,762	-0,217
15,500	-0,762	-0,217
15,550	-0,762	-0,217
15,600	-0,762	-0,217
15,650	-0,762	-0,217
15,700	-0,762	-0,217
15,750	-0,762	-0,217
15,800	-0,762	-0,217
15,850	-0,762	-0,217
15,900	-0,762	-0,217
15,950	-0,762	-0,217
16,000	-0,762	-0,217
16,050	-0,762	-0,217
16,100	-0,758	-0,216
16,150	-0,752	-0,216
16,200	-0,750	-0,216
16,250	-0,751	-0,216
16,300	-0,751	-0,216
16,350	-0,750	-0,216
16,400	-0,746	-0,216
16,450	-0,743	-0,216
16,500	-0,743	-0,216
16,550	-0,743	-0,216
16,600	-0,743	-0,216
16,650	-0,743	-0,216
16,700	-0,740	-0,216
16,750	-0,733	-0,215
16,800	-0,731	-0,215
16,850	-0,731	-0,215
16,900	-0,730	-0,215
16,950	-0,730	-0,215
17,000	-0,731	-0,216
17,050	-0,731	-0,215
17,100	-0,731	-0,215
17,150	-0,731	-0,215
17,200	-0,731	-0,216
17,250	-0,731	-0,215
17,300	-0,726	-0,215
17,350	-0,721	-0,215
17,400	-0,718	-0,215
17,450	-0,716	-0,214
17,500	-0,715	-0,215
17,550	-0,713	-0,215
17,600	-0,712	-0,214
17,650	-0,711	-0,214
17,700	-0,710	-0,214
17,750	-0,710	-0,214
17,800	-0,710	-0,214
17,850	-0,710	-0,214
17,900	-0,710	-0,214
17,950	-0,710	-0,214
18,000	-0,710	-0,214
18,050	-0,710	-0,214
18,100	-0,710	-0,214
18,150	-0,710	-0,214
18,200	-0,708	-0,214
18,250	-0,705	-0,214
18,300	-0,703	-0,214
18,350	-0,702	-0,214
18,400	-0,700	-0,214
18,450	-0,697	-0,214
18,500	-0,694	-0,213
18,550	-0,691	-0,213
18,600	-0,691	-0,213
18,650	-0,690	-0,213
18,700	-0,690	-0,213
18,750	-0,690	-0,213
18,800	-0,690	-0,213
18,850	-0,690	-0,213
18,900	-0,690	-0,213
18,950	-0,690	-0,213
19,000	-0,690	-0,213
19,050	-0,690	-0,213
19,100	-0,688	-0,213
19,150	-0,685	-0,213
19,200	-0,684	-0,213
19,250	-0,683	-0,213
19,300	-0,680	-0,213
19,350	-0,676	-0,212
19,400	-0,675	-0,212
19,450	-0,674	-0,212
19,500	-0,675	-0,212
19,550	-0,674	-0,212
19,600	-0,673	-0,212
19,650	-0,670	-0,212
19,700	-0,669	-0,212
19,750	-0,669	-0,212
19,800	-0,669	-0,212
19,850	-0,669	-0,212
19,900	-0,669	-0,212
19,950	-0,669	-0,212
20,000	-0,669	-0,211
20,050	-0,669	-0,212
20,100	-0,669	-0,212
20,150	-0,669	-0,212
20,200	-0,669	-0,212
20,250	-0,669	-0,212
20,300	-0,669	-0,211
20,350	-0,668	-0,212
20,400	-0,665	-0,211
20,450	-0,663	-0,212
20,500	-0,662	-0,211
20,550	-0,661	-0,212
20,600	-0,661	-0,211
20,650	-0,658	-0,212
20,700	-0,654	-0,211
20,750	-0,653	-0,212
20,800	-0,653	-0,211
20,850	-0,653	-0,212
20,900	-0,649	-0,210
20,950	-0,646	-0,211
21,000	-0,644	-0,210
21,050	-0,644	-0,211
21,100	-0,644	-0,210
21,150	-0,644	-0,211
21,200	-0,644	-0,210
21,250	-0,644	-0,211
21,300	-0,644	-0,210
21,350	-0,644	-0,211
21,400	-0,644	-0,210
21,450	-0,642	-0,211
21,500	-0,640	-0,210
21,550	-0,639	-0,211
21,600	-0,637	-0,209
21,650	-0,634	-0,210
21,700	-0,632	-0,210
21,750	-0,629	-0,210
21,800	-0,627	-0,209
21,850	-0,624	-0,210
21,900	-0,623	-0,209
21,950	-0,622	-0,210
22,000	-0,622	-0,209
22,050	-0,622	-0,210
22,100	-0,623	-0,209
22,150	-0,622	-0,210
22,200	-0,622	-0,209
22,250	-0,622	-0,210
22,300	-0,623	-0,209
22,350	-0,623	-0,210
22,400	-0,623	-0,209
22,450	-0,622	-0,210
22,500	-0,618	-0,209
22,550	-0,614	-0,209
22,600	-0,612	-0,208
22,650	-0,610	-0,209
22,700	-0,609	-0,208
22,750	-0,606	-0,209
22,800	-0,604	-0,208
22,850	-0,603	-0,209
22,900	-0,602	-0,208
22,950	-0,601	-0,208
23,000	-0,600	-0,207
23,050	-0,599	-0,208
23,100	-0,598	-0,207
23,150	-0,595	-0,208
23,200	-0,594	-0,207
23,250	-0,594	-0,208
23,300	-0,594	-0,207
23,350	-0,594	-0,208
23,400	-0,594	-0,207
23,450	-0,594	-0,208
23,500	-0,594	-0,207
23,550	-0,595	-0,208
23,600	-0,594	-0,207
23,650	-0,594	-0,208
23,700	-0,594	-0,207
23,750	-0,592	-0,208
23,800	-0,591	-0,207
23,850	-0,591	-0,208
23,900	-0,590	-0,207
23,950	-0,588	-0,208
24,000	-0,586	-0,207
24,050	-0,585	-0,207
24,100	-0,585	-0,206
24,150	-0,585	-0,208
24,200	-0,585	-0,206
24,250	-0,585	-0,208
24,300	-0,582	-0,206
24,350	-0,579	-0,207
24,400	-0,577	-0,206
24,450	-0,577	-0,207
24,500	-0,577	-0,206
24,550	-0,577	-0,207
24,600	-0,577	-0,206
24,650	-0,577	-0,207
24,700	-0,577	-0,206
24,750	-0,577	-0,207
24,800	-0,577	-0,206
24,850	-0,577	-0,207
24,900	-0,577	-0,206
24,950	-0,577	-0,207
25,000	-0,577	-0,206
25,050	-0,577	-0,207
25,100	-0,577	-0,206
25,150	-0,577	-0,207
25,200	-0,577	-0,206
25,250	-0,577	-0,207
25,300	-0,577	-0,206
25,350	-0,577	-0,207
25,400	-0,575	-0,206
25,450	-0,573	-0,207
25,500	-0,572	-0,206
25,550	-0,572	-0,207
25,600	-0,572	-0,206
25,650	-0,572	-0,207
25,700	-0,572	-0,206
25,750	-0,568	-0,206
25,800	-0,563	-0,205
25,850	-0,561	-0,206
25,900	-0,561	-0,205
25,950	-0,561	-0,206
26,000	-0,561	-0,205
26,050	-0,561	-0,206
26,100	-0,561	-0,205
26,150	-0,561	-0,206
26,200	-0,561	-0,205
26,250	-0,561	-0,206
26,300	-0,561	-0,205
26,350	-0,561	-0,206
26,400	-0,561	-0,205
26,450	-0,561	-0,206
26,500	-0,561	-0,205
26,550	-0,560	-0,206
26,600	-0,556	-0,204
26,650	-0,552	-0,205
26,700	-0,551	-0,204
26,750	-0,550	-0,205
26,800	-0,550	-0,204
26,850	-0,549	-0,205
26,900	-0,546	-0,204
26,950	-0,544	-0,205
27,000	-0,544	-0,204
27,050	-0,542	-0,205
27,100	-0,541	-0,204
27,150	-0,536	-0,205
27,200	-0,530	-0,203
27,250	-0,527	-0,204
27,300	-0,526	-0,203
27,350	-0,526	-0,204
27,400	-0,526	-0,203
27,450	-0,526	-0,204
27,500	-0,526	-0,203
27,550	-0,526	-0,204
27,600	-0,526	-0,202
27,650	-0,526	-0,204
27,700	-0,527	-0,203
27,750	-0,526	-0,204
27,800	-0,526	-0,202
27,850	-0,526	-0,204
27,900	-0,526	-0,202
27,950	-0,524	-0,204
28,000	-0,522	-0,202
28,050	-0,520	-0,203
28,100	-0,520	-0,202
28,150	-0,519	-0,203
28,200	-0,517	-0,202
28,250	-0,514	-0,203
28,300	-0,511	-0,202
28,350	-0,511	-0,203
28,400	-0,511	-0,201
28,450	-0,510	-0,203
28,500	-0,511	-0,202
28,550	-0,511	-0,203
28,600	-0,511	-0,202
28,650	-0,510	-0,203
28,700	-0,511	-0,202
28,750	-0,510	-0,203
28,800	-0,510	-0,202
28,850	-0,510	-0,203
28,900	-0,507	-0,201
28,950	-0,505	-0,202
29,000	-0,502	-0,201
29,050	-0,499	-0,202
29,100	-0,498	-0,201
29,150	-0,498	-0,202
29,200	-0,496	-0,201
29,250	-0,493	-0,202
29,300	-0,491	-0,200
29,350	-0,490	-0,201
29,400	-0,490	-0,200
29,450	-0,489	-0,201
29,500	-0,488	-0,200
29,550	-0,486	-0,201
29,600	-0,485	-0,200
29,650	-0,485	-0,201
29,700	-0,484	-0,200
29,750	-0,485	-0,201
29,800	-0,484	-0,200
29,850	-0,484	-0,201
29,900	-0,484	-0,200
29,950	-0,484	-0,201
30,000	-0,485	-0,200
30,050	-0,484	-0,201
30,100	-0,484	-0,200
30,150	-0,484	-0,201
30,200	-0,484	-0,200
30,250	-0,481	-0,201
30,300	-0,479	-0,199
30,350	-0,479	-0,200
30,400	-0,479	-0,199
30,450	-0,477	-0,200
30,500	-0,477	-0,200
30,550	-0,476	-0,200
30,600	-0,473	-0,199
30,650	-0,472	-0,200
30,700	-0,471	-0,199
30,750	-0,472	-0,200
30,800	-0,469	-0,199
30,850	-0,465	-0,199
30,900	-0,463	-0,198
30,950	-0,463	-0,200
31,000	-0,463	-0,198
31,050	-0,463	-0,200
31,100	-0,463	-0,198
31,150	-0,463	-0,199
31,200	-0,463	-0,198
31,250	-0,463	-0,199
31,300	-0,462	-0,198
31,350	-0,462	-0,199
31,400	-0,463	-0,199
31,450	-0,462	-0,200
31,500	-0,456	-0,198
31,550	-0,451	-0,199
31,600	-0,447	-0,197
31,650	-0,444	-0,198
31,700	-0,444	-0,197
31,750	-0,444	-0,198
31,800	-0,444	-0,197
31,850	-0,444	-0,198
31,900	-0,444	-0,197
31,950	-0,444	-0,198
32,000	-0,444	-0,197
32,050	-0,444	-0,198
32,100	-0,444	-0,197
32,150	-0,444	-0,198
32,200	-0,443	-0,197
32,250	-0,444	-0,198
32,300	-0,442	-0,197
32,350	-0,436	-0,197
32,400	-0,433	-0,196
32,450	-0,431	-0,197
32,500	-0,431	-0,196
32,550	-0,430	-0,197
32,600	-0,428	-0,196
32,650	-0,424	-0,196
32,700	-0,420	-0,195
32,750	-0,418	-0,196
32,800	-0,418	-0,195
32,850	-0,418	-0,196
32,900	-0,418	-0,195
32,950	-0,418	-0,196
33,000	-0,418	-0,195
33,050	-0,418	-0,196
33,100	-0,418	-0,195
33,150	-0,418	-0,196
33,200	-0,417	-0,195
33,250	-0,412	-0,195
33,300	-0,407	-0,194
33,350	-0,402	-0,194
33,400	-0,398	-0,193
33,450	-0,396	-0,194
33,500	-0,396	-0,193
33,550	-0,396	-0,194
33,600	-0,396	-0,193
33,650	-0,396	-0,194
33,700	-0,395	-0,193
33,750	-0,396	-0,194
33,800	-0,396	-0,193
33,850	-0,395	-0,194
33,900	-0,395	-0,193
33,950	-0,395	-0,194
34,000	-0,391	-0,193
34,050	-0,386	-0,193
34,100	-0,385	-0,192
34,150	-0,384	-0,193
34,200	-0,384	-0,192
34,250	-0,383	-0,193
34,300	-0,383	-0,192
34,350	-0,382	-0,193
34,400	-0,381	-0,192
34,450	-0,380	-0,192
34,500	-0,380	-0,192
34,550	-0,379	-0,193
34,600	-0,378	-0,192
34,650	-0,377	-0,192
34,700	-0,377	-0,191
34,750	-0,377	-0,192
34,800	-0,377	-0,192
34,850	-0,377	-0,192
34,900	-0,376	-0,191
34,950	-0,377	-0,192
35,000	-0,377	-0,192
35,050	-0,377	-0,192
35,100	-0,377	-0,192
35,150	-0,376	-0,192
35,200	-0,377	-0,191
35,250	-0,376	-0,192
35,300	-0,372	-0,191
35,350	-0,366	-0,191
35,400	-0,364	-0,190
35,450	-0,363	-0,191
35,500	-0,363	-0,190
35,550	-0,363	-0,191
35,600	-0,363	-0,190
35,650	-0,363	-0,191
35,700	-0,363	-0,190
35,750	-0,363	-0,191
35,800	-0,363	-0,190
35,850	-0,363	-0,191
35,900	-0,363	-0,190
35,950	-0,363	-0,191
36,000	-0,363	-0,190
36,050	-0,363	-0,191
36,100	-0,363	-0,190
36,150	-0,360	-0,190
36,200	-0,353	-0,189
36,250	-0,344	-0,189
36,300	-0,341	-0,188
36,350	-0,340	-0,189
36,400	-0,340	-0,188
36,450	-0,340	-0,189
36,500	-0,340	-0,188
36,550	-0,340	-0,188
36,600	-0,340	-0,188
36,650	-0,340	-0,189
36,700	-0,340	-0,188
36,750	-0,340	-0,188
36,800	-0,340	-0,188
36,850	-0,340	-0,188
36,900	-0,340	-0,188
36,950	-0,339	-0,188
37,000	-0,336	-0,188
37,050	-0,328	-0,187
37,100	-0,322	-0,186
37,150	-0,320	-0,187
37,200	-0,319	-0,186
37,250	-0,319	-0,187
37,300	-0,319	-0,186
37,350	-0,319	-0,186
37,400	-0,319	-0,186
37,450	-0,319	-0,186
37,500	-0,319	-0,186
37,550	-0,319	-0,186
37,600	-0,319	-0,186
37,650	-0,319	-0,187
37,700	-0,319	-0,186
37,750	-0,319	-0,186
37,800	-0,315	-0,186
37,850	-0,311	-0,185
37,900	-0,308	-0,185
37,950	-0,306	-0,185
38,000	-0,303	-0,184
38,050	-0,299	-0,184
38,100	-0,295	-0,183
38,150	-0,293	-0,183
38,200	-0,292	-0,183
38,250	-0,292	-0,183
38,300	-0,292	-0,183
38,350	-0,292	-0,183
38,400	-0,292	-0,183
38,450	-0,292	-0,183
38,500	-0,292	-0,183
38,550	-0,292	-0,183
38,600	-0,292	-0,183
38,650	-0,292	-0,183
38,700	-0,291	-0,183
38,750	-0,290	-0,183
38,800	-0,290	-0,182
38,850	-0,290	-0,183
38,900	-0,290	-0,183
38,950	-0,290	-0,183
39,000	-0,289	-0,182
39,050	-0,290	-0,183
39,100	-0,290	-0,182
39,150	-0,289	-0,183
39,200	-0,290	-0,183
39,250	-0,289	-0,183
39,300	-0,290	-0,183
39,350	-0,290	-0,183
39,400	-0,290	-0,183
39,450	-0,290	-0,183
39,500	-0,290	-0,183
39,550	-0,289	-0,183
39,600	-0,289	-0,182
39,650	-0,290	-0,183
39,700	-0,290	-0,183
39,750	-0,288	-0,183
39,800	-0,283	-0,182
39,850	-0,278	-0,182
39,900	-0,277	-0,181
39,950	-0,276	-0,181
40,000	-0,276	-0,181
40,050	-0,276	-0,181
40,100	-0,276	-0,181
40,150	-0,276	-0,181
40,200	-0,276	-0,181
40,250	-0,276	-0,181
40,300	-0,276	-0,181
40,350	-0,276	-0,181
40,400	-0,276	-0,181
40,450	-0,276	-0,181
40,500	-0,276	-0,181
40,550	-0,276	-0,181
40,600	-0,276	-0,181
40,650	-0,276	-0,181
40,700	-0,274	-0,181
40,750	-0,271	-0,180
40,800	-0,271	-0,180
40,850	-0,268	-0,180
40,900	-0,262	-0,179
40,950	-0,257	-0,179
41,000	-0,255	-0,178
41,050	-0,254	-0,178
41,100	-0,253	-0,178
41,150	-0,253	-0,178
41,200	-0,253	-0,178
41,250	-0,253	-0,178
41,300	-0,253	-0,178
41,350	-0,253	-0,178
41,400	-0,253	-0,178
41,450	-0,253	-0,178
41,500	-0,253	-0,178
41,550	-0,251	-0,178
41,600	-0,243	-0,177
41,650	-0,237	-0,176
41,700	-0,233	-0,175
41,750	-0,232	-0,174
41,800	-0,231	-0,175
41,850	-0,231	-0,174
41,900	-0,231	-0,174
41,950	-0,231	-0,175
42,000	-0,231	-0,174
42,050	-0,231	-0,175
42,100	-0,230	-0,175
42,150	-0,226	-0,174
42,200	-0,223	-0,173
42,250	-0,220	-0,173
42,300	-0,217	-0,172
42,350	-0,214	-0,172
42,400	-0,211	-0,171
42,450	-0,210	-0,171
42,500	-0,210	-0,171
42,550	-0,210	-0,171
42,600	-0,209	-0,171
42,650	-0,209	-0,170
42,700	-0,209	-0,171
42,750	-0,209	-0,170
42,800	-0,209	-0,171
42,850	-0,209	-0,171
42,900	-0,209	-0,171
42,950	-0,209	-0,170
43,000	-0,209	-0,171
43,050	-0,209	-0,170
43,100	-0,209	-0,171
43,150	-0,208	-0,171
43,200	-0,206	-0,170
43,250	-0,204	-0,170
43,300	-0,201	-0,169
43,350	-0,200	-0,169
43,400	-0,198	-0,169
43,450	-0,197	-0,168
43,500	-0,196	-0,168
43,550	-0,196	-0,168
43,600	-0,196	-0,168
43,650	-0,195	-0,168
43,700	-0,195	-0,168
43,750	-0,196	-0,168
43,800	-0,195	-0,168
43,850	-0,196	-0,168
43,900	-0,195	-0,168
43,950	-0,195	-0,167
44,000	-0,194	-0,168
44,050	-0,192	-0,167
44,100	-0,192	-0,167
44,150	-0,191	-0,167
44,200	-0,191	-0,167
44,250	-0,191	-0,167
44,300	-0,191	-0,167
44,350	-0,191	-0,166
44,400	-0,191	-0,167
44,450	-0,191	-0,167
44,500	-0,191	-0,167
44,550	-0,190	-0,166
44,600	-0,189	-0,166
44,650	-0,189	-0,166
44,700	-0,189	-0,167
44,750	-0,189	-0,166
44,800	-0,188	-0,166
44,850	-0,189	-0,166
44,900	-0,188	-0,166
44,950	-0,188	-0,166
45,000	-0,188	-0,166
45,050	-0,188	-0,166
45,100	-0,188	-0,166
45,150	-0,188	-0,166
45,200	-0,187	-0,166
45,250	-0,185	-0,165
45,300	-0,184	-0,166
45,350	-0,184	-0,165
45,400	-0,184	-0,165
45,450	-0,183	-0,165
45,500	-0,183	-0,165
45,550	-0,182	-0,165
45,600	-0,181	-0,165
45,650	-0,181	-0,164
45,700	-0,181	-0,165
45,750	-0,181	-0,164
45,800	-0,180	-0,164
45,850	-0,179	-0,164
45,900	-0,178	-0,164
45,950	-0,177	-0,163
46,000	-0,177	-0,164
46,050	-0,177	-0,163
46,100	-0,177	-0,164
46,150	-0,177	-0,163
46,200	-0,177	-0,164
46,250	-0,177	-0,163
46,300	-0,177	-0,163
46,350	-0,177	-0,163
46,400	-0,177	-0,164
46,450	-0,177	-0,163
46,500	-0,177	-0,163
46,550	-0,177	-0,163
46,600	-0,177	-0,164
46,650	-0,176	-0,163
46,700	-0,177	-0,164
46,750	-0,176	-0,163
46,800	-0,176	-0,164
46,850	-0,176	-0,163
46,900	-0,176	-0,163
46,950	-0,175	-0,163
47,000	-0,175	-0,163
47,050	-0,174	-0,163
47,100	-0,173	-0,163
47,150	-0,172	-0,162
47,200	-0,171	-0,163
47,250	-0,171	-0,161
47,300	-0,171	-0,162
47,350	-0,170	-0,161
47,400	-0,169	-0,162
47,450	-0,169	-0,161
47,500	-0,168	-0,162
47,550	-0,168	-0,161
47,600	-0,167	-0,161
47,650	-0,167	-0,160
47,700	-0,166	-0,161
47,750	-0,166	-0,160
47,800	-0,166	-0,161
47,850	-0,165	-0,160
47,900	-0,165	-0,161
47,950	-0,164	-0,160
48,000	-0,163	-0,160
48,050	-0,162	-0,159
48,100	-0,161	-0,159
48,150	-0,161	-0,159
48,200	-0,160	-0,160
48,250	-0,160	-0,159
48,300	-0,160	-0,159
48,350	-0,160	-0,159
48,400	-0,160	-0,159
48,450	-0,160	-0,159
48,500	-0,160	-0,159
48,550	-0,160	-0,158
48,600	-0,160	-0,159
48,650	-0,160	-0,158
48,700	-0,160	-0,159
48,750	-0,160	-0,158
48,800	-0,160	-0,159
48,850	-0,160	-0,158
48,900	-0,160	-0,159
48,950	-0,160	-0,158
49,000	-0,160	-0,159
49,050	-0,160	-0,158
49,100	-0,159	-0,159
49,150	-0,159	-0,158
49,200	-0,158	-0,159
49,250	-0,158	-0,158
49,300	-0,157	-0,159
49,350	-0,157	-0,158
49,400	-0,156	-0,158
49,450	-0,156	-0,157
49,500	-0,156	-0,158
49,550	-0,155	-0,157
49,600	-0,154	-0,158
49,650	-0,153	-0,157
49,700	-0,152	-0,157
49,750	-0,151	-0,156
49,800	-0,151	-0,156
49,850	-0,151	-0,156
49,900	-0,150	-0,156
49,950	-0,150	-0,155
50,000	-0,150	-0,157
50,050	-0,149	-0,155
50,100	-0,148	-0,156
50,150	-0,147	-0,154
50,200	-0,146	-0,155
50,250	-0,146	-0,154
50,300	-0,146	-0,155
50,350	-0,144	-0,154
50,400	-0,142	-0,154
50,450	-0,140	-0,152
50,500	-0,139	-0,153
50,550	-0,139	-0,152
50,600	-0,139	-0,152
50,650	-0,138	-0,151
50,700	-0,138	-0,152
50,750	-0,137	-0,151
50,800	-0,137	-0,152
50,850	-0,136	-0,150
50,900	-0,135	-0,151
50,950	-0,135	-0,150
51,000	-0,135	-0,151
51,050	-0,134	-0,150
51,100	-0,134	-0,150
51,150	-0,133	-0,149
51,200	-0,133	-0,150
51,250	-0,133	-0,149
51,300	-0,133	-0,150
51,350	-0,132	-0,149
51,400	-0,132	-0,150
51,450	-0,132	-0,149
51,500	-0,131	-0,150
51,550	-0,130	-0,148
51,600	-0,128	-0,148
51,650	-0,128	-0,147
51,700	-0,127	-0,148
51,750	-0,127	-0,147
51,800	-0,126	-0,147
51,850	-0,126	-0,146
51,900	-0,125	-0,147
51,950	-0,125	-0,146
52,000	-0,125	-0,147
52,050	-0,124	-0,146
52,100	-0,124	-0,147
52,150	-0,124	-0,146
52,200	-0,124	-0,146
52,250	-0,124	-0,145
52,300	-0,124	-0,146
52,350	-0,124	-0,145
52,400	-0,124	-0,147
52,450	-0,124	-0,145
52,500	-0,124	-0,146
52,550	-0,124	-0,146
52,600	-0,124	-0,146
52,650	-0,123	-0,145
52,700	-0,123	-0,146
52,750	-0,122	-0,145
52,800	-0,121	-0,145
52,850	-0,121	-0,144
52,900	-0,120	-0,145
52,950	-0,119	-0,143
53,000	-0,118	-0,144
53,050	-0,117	-0,142
53,100	-0,117	-0,143
53,150	-0,117	-0,142
53,200	-0,116	-0,143
53,250	-0,115	-0,141
53,300	-0,115	-0,142
53,350	-0,114	-0,141
53,400	-0,114	-0,142
53,450	-0,114	-0,141
53,500	-0,113	-0,141
53,550	-0,113	-0,140
53,600	-0,113	-0,141
53,650	-0,113	-0,140
53,700	-0,113	-0,141
53,750	-0,112	-0,140
53,800	-0,112	-0,141
53,850	-0,111	-0,139
53,900	-0,111	-0,140
53,950	-0,110	-0,139
54,000	-0,110	-0,140
54,050	-0,109	-0,138
54,100	-0,109	-0,139
54,150	-0,109	-0,138
54,200	-0,109	-0,139
54,250	-0,108	-0,138
54,300	-0,108	-0,139
54,350	-0,108	-0,138
54,400	-0,107	-0,138
54,450	-0,106	-0,137
54,500	-0,106	-0,138
54,550	-0,106	-0,136
54,600	-0,106	-0,137
54,650	-0,105	-0,136
54,700	-0,105	-0,137
54,750	-0,105	-0,136
54,800	-0,105	-0,137
54,850	-0,105	-0,136
54,900	-0,105	-0,137
54,950	-0,105	-0,136
55,000	-0,105	-0,137
55,050	-0,105	-0,136
55,100	-0,104	-0,136
55,150	-0,104	-0,135
55,200	-0,104	-0,136
55,250	-0,103	-0,135
55,300	-0,103	-0,136
55,350	-0,103	-0,135
55,400	-0,102	-0,136
55,450	-0,102	-0,134
55,500	-0,102	-0,135
55,550	-0,102	-0,134
55,600	-0,102	-0,135
55,650	-0,102	-0,134
55,700	-0,102	-0,135
55,750	-0,102	-0,134
55,800	-0,102	-0,135
55,850	-0,102	-0,134
55,900	-0,101	-0,135
55,950	-0,101	-0,133
56,000	-0,100	-0,134
56,050	-0,100	-0,133
56,100	-0,100	-0,134
56,150	-0,099	-0,132
56,200	-0,100	-0,134
56,250	-0,100	-0,133
56,300	-0,100	-0,134
56,350	-0,099	-0,133
56,400	-0,099	-0,133
56,450	-0,100	-0,133
56,500	-0,099	-0,133
56,550	-0,099	-0,132
56,600	-0,100	-0,134
56,650	-0,099	-0,132
56,700	-0,099	-0,133
56,750	-0,099	-0,132
56,800	-0,099	-0,133
56,850	-0,099	-0,132
56,900	-0,099	-0,133
56,950	-0,099	-0,132
57,000	-0,099	-0,134
57,050	-0,099	-0,132
57,100	-0,098	-0,133
57,150	-0,098	-0,132
57,200	-0,098	-0,133
57,250	-0,098	-0,132
57,300	-0,098	-0,133
57,350	-0,098	-0,132
57,400	-0,097	-0,132
57,450	-0,098	-0,131
57,500	-0,098	-0,132
57,550	-0,098	-0,132
57,600	-0,098	-0,133
57,650	-0,097	-0,131
57,700	-0,097	-0,132
57,750	-0,097	-0,131
57,800	-0,097	-0,132
57,850	-0,098	-0,131
57,900	-0,098	-0,132
57,950	-0,097	-0,131
58,000	-0,097	-0,132
58,050	-0,098	-0,131
58,100	-0,097	-0,132
58,150	-0,097	-0,131
58,200	-0,098	-0,132
58,250	-0,098	-0,131
58,300	-0,098	-0,132
58,350	-0,098	-0,131
58,400	-0,098	-0,132
58,450	-0,098	-0,131
58,500	-0,099	-0,133
58,550	-0,099	-0,131
58,600	-0,100	-0,133
58,650	-0,100	-0,132
58,700	-0,101	-0,133
58,750	-0,101	-0,132
58,800	-0,102	-0,133
58,850	-0,102	-0,132
58,900	-0,102	-0,133
58,950	-0,103	-0,132
59,000	-0,103	-0,133
59,050	-0,104	-0,132
59,100	-0,104	-0,133
59,150	-0,104	-0,132
59,200	-0,105	-0,133
59,250	-0,105	-0,132
59,300	-0,105	-0,133
59,350	-0,106	-0,132
59,400	-0,106	-0,133
59,450	-0,106	-0,132
59,500	-0,107	-0,133
59,550	-0,108	-0,133
59,600	-0,108	-0,133
59,650	-0,108	-0,133
59,700	-0,109	-0,133
59,750	-0,110	-0,133
59,800	-0,110	-0,134
59,850	-0,111	-0,133
59,900	-0,111	-0,134
59,950	-0,111	-0,133
60,000	-0,111	-0,134
60,050	-0,112	-0,133
60,100	-0,112	-0,134
60,150	-0,113	-0,133
60,200	-0,113	-0,134
60,250	-0,113	-0,133
60,300	-0,113	-0,135
60,350	-0,113	-0,133
60,400	-0,114	-0,134
60,450	-0,114	-0,133
60,500	-0,114	-0,135
60,550	-0,115	-0,134
60,600	-0,115	-0,135
60,650	-0,115	-0,133
60,700	-0,114	-0,134
60,750	-0,115	-0,134
60,800	-0,114	-0,135
60,850	-0,115	-0,134
60,900	-0,115	-0,135
60,950	-0,114	-0,133
61,000	-0,115	-0,135
61,050	-0,115	-0,133
61,100	-0,115	-0,135
61,150	-0,115	-0,134
61,200	-0,115	-0,135
61,250	-0,116	-0,134
61,300	-0,116	-0,135
61,350	-0,117	-0,134
61,400	-0,117	-0,135
61,450	-0,118	-0,134
61,500	-0,118	-0,135
61,550	-0,118	-0,134
61,600	-0,119	-0,135
61,650	-0,119	-0,134
61,700	-0,119	-0,135
61,750	-0,119	-0,134
61,800	-0,119	-0,135
61,850	-0,119	-0,134
61,900	-0,119	-0,135
61,950	-0,119	-0,134
62,000	-0,119	-0,135
62,050	-0,119	-0,134
62,100	-0,119	-0,135
62,150	-0,120	-0,134
62,200	-0,121	-0,136
62,250	-0,122	-0,134
62,300	-0,122	-0,136
62,350	-0,123	-0,135
62,400	-0,123	-0,136
62,450	-0,124	-0,135
62,500	-0,124	-0,136
62,550	-0,125	-0,135
62,600	-0,125	-0,136
62,650	-0,125	-0,135
62,700	-0,125	-0,136
62,750	-0,125	-0,135
62,800	-0,126	-0,136
62,850	-0,126	-0,135
62,900	-0,126	-0,137
62,950	-0,127	-0,135
63,000	-0,127	-0,137
63,050	-0,127	-0,135
63,100	-0,128	-0,137
63,150	-0,128	-0,136
63,200	-0,128	-0,137
63,250	-0,129	-0,136
63,300	-0,129	-0,137
63,350	-0,130	-0,136
63,400	-0,130	-0,137
63,450	-0,130	-0,136
63,500	-0,131	-0,137
63,550	-0,131	-0,136
63,600	-0,132	-0,137
63,650	-0,132	-0,136
63,700	-0,132	-0,137
63,750	-0,133	-0,136
63,800	-0,133	-0,138
63,850	-0,133	-0,137
63,900	-0,133	-0,138
63,950	-0,134	-0,136
64,000	-0,134	-0,138
64,050	-0,134	-0,136
64,100	-0,135	-0,138
64,150	-0,135	-0,137
64,200	-0,135	-0,138
64,250	-0,135	-0,137
64,300	-0,135	-0,138
64,350	-0,135	-0,137
64,400	-0,135	-0,138
64,450	-0,135	-0,137
64,500	-0,136	-0,138
64,550	-0,135	-0,137
64,600	-0,135	-0,138
64,650	-0,135	-0,137
64,700	-0,136	-0,138
64,750	-0,138	-0,137
64,800	-0,140	-0,139
64,850	-0,140	-0,138
64,900	-0,140	-0,139
64,950	-0,140	-0,138
65,000	-0,140	-0,139
65,050	-0,141	-0,138
65,100	-0,142	-0,139
65,150	-0,142	-0,138
65,200	-0,142	-0,139
65,250	-0,142	-0,138
65,300	-0,142	-0,139
65,350	-0,142	-0,138
65,400	-0,142	-0,140
65,450	-0,142	-0,138
65,500	-0,142	-0,139
65,550	-0,143	-0,138
65,600	-0,144	-0,140
65,650	-0,144	-0,138
65,700	-0,144	-0,140
65,750	-0,144	-0,138
65,800	-0,144	-0,140
65,850	-0,145	-0,139
65,900	-0,145	-0,140
65,950	-0,145	-0,139
66,000	-0,145	-0,140
66,050	-0,145	-0,139
66,100	-0,146	-0,140
66,150	-0,146	-0,139
66,200	-0,147	-0,140
66,250	-0,147	-0,139
66,300	-0,147	-0,140
66,350	-0,148	-0,139
66,400	-0,149	-0,141
66,450	-0,149	-0,139
66,500	-0,149	-0,141
66,550	-0,149	-0,140
66,600	-0,150	-0,141
66,650	-0,151	-0,140
66,700	-0,151	-0,141
66,750	-0,151	-0,140
66,800	-0,151	-0,141
66,850	-0,151	-0,140
66,900	-0,151	-0,141
66,950	-0,153	-0,140
67,000	-0,154	-0,141
67,050	-0,154	-0,140
67,100	-0,154	-0,142
67,150	-0,155	-0,140
67,200	-0,155	-0,142
67,250	-0,155	-0,141
67,300	-0,155	-0,142
67,350	-0,155	-0,141
67,400	-0,155	-0,142
67,450	-0,155	-0,140
67,500	-0,155	-0,142
67,550	-0,155	-0,140
67,600	-0,155	-0,142
67,650	-0,155	-0,141
67,700	-0,155	-0,142
67,750	-0,157	-0,141
67,800	-0,159	-0,143
67,850	-0,160	-0,142
67,900	-0,161	-0,143
67,950	-0,161	-0,142
68,000	-0,161	-0,143
68,050	-0,161	-0,142
68,100	-0,161	-0,143
68,150	-0,163	-0,142
68,200	-0,164	-0,143
68,250	-0,165	-0,142
68,300	-0,165	-0,144
68,350	-0,166	-0,143
68,400	-0,167	-0,144
68,450	-0,168	-0,143
68,500	-0,169	-0,145
68,550	-0,170	-0,144
68,600	-0,170	-0,145
68,650	-0,170	-0,144
68,700	-0,170	-0,145
68,750	-0,170	-0,144
68,800	-0,170	-0,145
68,850	-0,170	-0,144
68,900	-0,171	-0,145
68,950	-0,170	-0,144
69,000	-0,170	-0,145
69,050	-0,170	-0,144
69,100	-0,170	-0,145
69,150	-0,170	-0,144
69,200	-0,170	-0,145
69,250	-0,170	-0,144
69,300	-0,170	-0,145
69,350	-0,172	-0,144
69,400	-0,177	-0,146
69,450	-0,180	-0,146
69,500	-0,182	-0,147
69,550	-0,183	-0,146
69,600	-0,184	-0,148
69,650	-0,184	-0,147
69,700	-0,184	-0,148
69,750	-0,184	-0,147
69,800	-0,184	-0,148
69,850	-0,185	-0,147
69,900	-0,184	-0,148
69,950	-0,184	-0,147
70,000	-0,184	-0,148
70,050	-0,184	-0,147
70,100	-0,185	-0,148
70,150	-0,186	-0,147
70,200	-0,187	-0,149
70,250	-0,187	-0,147
70,300	-0,188	-0,149
70,350	-0,188	-0,147
70,400	-0,188	-0,149
70,450	-0,188	-0,147
70,500	-0,188	-0,149
70,550	-0,188	-0,148
70,600	-0,188	-0,149
70,650	-0,188	-0,148
70,700	-0,188	-0,149
70,750	-0,189	-0,148
70,800	-0,193	-0,149
70,850	-0,197	-0,149
70,900	-0,198	-0,151
70,950	-0,199	-0,150
71,000	-0,200	-0,151
71,050	-0,200	-0,150
71,100	-0,200	-0,151
71,150	-0,200	-0,150
71,200	-0,200	-0,152
71,250	-0,200	-0,150
71,300	-0,200	-0,151
71,350	-0,201	-0,150
71,400	-0,201	-0,152
71,450	-0,202	-0,151
71,500	-0,202	-0,152
71,550	-0,202	-0,150
71,600	-0,202	-0,152
71,650	-0,203	-0,151
71,700	-0,203	-0,152
71,750	-0,204	-0,151
71,800	-0,204	-0,152
71,850	-0,204	-0,151
71,900	-0,204	-0,152
71,950	-0,204	-0,151
72,000	-0,204	-0,152
72,050	-0,205	-0,151
72,100	-0,205	-0,152
72,150	-0,205	-0,151
72,200	-0,205	-0,152
72,250	-0,206	-0,152
72,300	-0,206	-0,153
72,350	-0,207	-0,152
72,400	-0,207	-0,153
72,450	-0,208	-0,152
72,500	-0,208	-0,153
72,550	-0,209	-0,152
72,600	-0,209	-0,153
72,650	-0,209	-0,152
72,700	-0,210	-0,153
72,750	-0,210	-0,152
72,800	-0,211	-0,154
72,850	-0,211	-0,152
72,900	-0,211	-0,154
72,950	-0,212	-0,153
73,000	-0,212	-0,154
73,050	-0,213	-0,153
73,100	-0,213	-0,154
73,150	-0,213	-0,153
73,200	-0,213	-0,154
73,250	-0,213	-0,153
73,300	-0,214	-0,154
73,350	-0,214	-0,153
73,400	-0,214	-0,155
73,450	-0,214	-0,153
73,500	-0,214	-0,154
73,550	-0,214	-0,153
73,600	-0,214	-0,154
73,650	-0,215	-0,154
73,700	-0,214	-0,154
73,750	-0,214	-0,153
73,800	-0,214	-0,154
73,850	-0,215	-0,153
73,900	-0,214	-0,154
73,950	-0,214	-0,153
74,000	-0,214	-0,155
74,050	-0,213	-0,153
74,100	-0,211	-0,154
74,150	-0,210	-0,153
74,200	-0,210	-0,154
74,250	-0,210	-0,153
74,300	-0,210	-0,154
74,350	-0,209	-0,153
74,400	-0,208	-0,154
74,450	-0,207	-0,153
74,500	-0,206	-0,153
74,550	-0,205	-0,152
74,600	-0,205	-0,154
74,650	-0,205	-0,152
74,700	-0,204	-0,153
74,750	-0,204	-0,152
74,800	-0,203	-0,153
74,850	-0,203	-0,152
74,900	-0,203	-0,153
74,950	-0,202	-0,152
75,000	-0,202	-0,153
75,050	-0,201	-0,152
75,100	-0,201	-0,153
75,150	-0,200	-0,152
75,200	-0,200	-0,153
75,250	-0,200	-0,152
75,300	-0,199	-0,153
75,350	-0,198	-0,152
75,400	-0,198	-0,153
75,450	-0,197	-0,152
75,500	-0,196	-0,153
75,550	-0,195	-0,151
75,600	-0,194	-0,152
75,650	-0,193	-0,151
75,700	-0,192	-0,152
75,750	-0,191	-0,151
75,800	-0,191	-0,152
75,850	-0,190	-0,151
75,900	-0,189	-0,152
75,950	-0,188	-0,150
76,000	-0,187	-0,152
76,050	-0,186	-0,150
76,100	-0,185	-0,151
76,150	-0,184	-0,150
76,200	-0,184	-0,151
76,250	-0,184	-0,150
76,300	-0,184	-0,151
76,350	-0,184	-0,150
76,400	-0,184	-0,151
76,450	-0,184	-0,150
76,500	-0,184	-0,151
76,550	-0,184	-0,150
76,600	-0,184	-0,151
76,650	-0,184	-0,150
76,700	-0,184	-0,151
76,750	-0,183	-0,150
76,800	-0,182	-0,151
76,850	-0,180	-0,149
76,900	-0,180	-0,150
76,950	-0,179	-0,149
77,000	-0,178	-0,150
77,050	-0,177	-0,149
77,100	-0,177	-0,150
77,150	-0,177	-0,149
77,200	-0,175	-0,150
77,250	-0,173	-0,148
77,300	-0,173	-0,149
77,350	-0,173	-0,148
77,400	-0,172	-0,149
77,450	-0,171	-0,148
77,500	-0,170	-0,149
77,550	-0,170	-0,148
77,600	-0,170	-0,149
77,650	-0,170	-0,148
77,700	-0,169	-0,149
77,750	-0,168	-0,148
77,800	-0,167	-0,149
77,850	-0,166	-0,147
77,900	-0,166	-0,148
77,950	-0,166	-0,147
78,000	-0,166	-0,149
78,050	-0,166	-0,147
78,100	-0,166	-0,149
78,150	-0,165	-0,147
78,200	-0,166	-0,149
78,250	-0,166	-0,147
78,300	-0,165	-0,148
78,350	-0,165	-0,147
78,400	-0,166	-0,148
78,450	-0,166	-0,147
78,500	-0,165	-0,148
78,550	-0,165	-0,147
78,600	-0,165	-0,148
78,650	-0,165	-0,147
78,700	-0,165	-0,149
78,750	-0,164	-0,147
78,800	-0,163	-0,148
78,850	-0,163	-0,147
78,900	-0,162	-0,148
78,950	-0,162	-0,147
79,000	-0,162	-0,148
79,050	-0,160	-0,146
79,100	-0,160	-0,147
79,150	-0,159	-0,146
79,200	-0,158	-0,147
79,250	-0,157	-0,146
79,300	-0,157	-0,147
79,350	-0,156	-0,146
79,400	-0,155	-0,146
79,450	-0,154	-0,146
79,500	-0,153	-0,147
79,550	-0,152	-0,145
79,600	-0,151	-0,146
79,650	-0,150	-0,145
79,700	-0,150	-0,146
79,750	-0,149	-0,144
79,800	-0,150	-0,146
79,850	-0,149	-0,144
79,900	-0,148	-0,146
79,950	-0,147	-0,144
80,000	-0,146	-0,145
80,050	-0,144	-0,144
80,100	-0,143	-0,145
80,150	-0,142	-0,143
80,200	-0,140	-0,144
80,250	-0,140	-0,143
80,300	-0,139	-0,144
80,350	-0,138	-0,143
80,400	-0,138	-0,143
80,450	-0,138	-0,142
80,500	-0,138	-0,143
80,550	-0,136	-0,142
80,600	-0,135	-0,143
80,650	-0,134	-0,142
80,700	-0,133	-0,143
80,750	-0,131	-0,141
80,800	-0,130	-0,142
80,850	-0,130	-0,141
80,900	-0,130	-0,142
80,950	-0,130	-0,140
81,000	-0,129	-0,141
81,050	-0,129	-0,140
81,100	-0,127	-0,141
81,150	-0,127	-0,140
81,200	-0,126	-0,141
81,250	-0,125	-0,140
81,300	-0,125	-0,141
81,350	-0,124	-0,139
81,400	-0,123	-0,140
81,450	-0,122	-0,139
81,500	-0,120	-0,139
81,550	-0,119	-0,138
81,600	-0,118	-0,138
81,650	-0,118	-0,137
81,700	-0,117	-0,138
81,750	-0,117	-0,137
81,800	-0,117	-0,138
81,850	-0,117	-0,137
81,900	-0,116	-0,138
81,950	-0,116	-0,137
82,000	-0,114	-0,138
82,050	-0,114	-0,136
82,100	-0,113	-0,137
82,150	-0,112	-0,136
82,200	-0,112	-0,137
82,250	-0,112	-0,136
82,300	-0,111	-0,137
82,350	-0,111	-0,136
82,400	-0,112	-0,137
82,450	-0,111	-0,136
82,500	-0,111	-0,137
82,550	-0,111	-0,135
82,600	-0,111	-0,137
82,650	-0,111	-0,135
82,700	-0,109	-0,136
82,750	-0,107	-0,135
82,800	-0,104	-0,135
82,850	-0,102	-0,133
82,900	-0,101	-0,134
82,950	-0,099	-0,132
83,000	-0,099	-0,133
83,050	-0,098	-0,131
83,100	-0,096	-0,132
83,150	-0,094	-0,130
83,200	-0,092	-0,130
83,250	-0,090	-0,128
83,300	-0,089	-0,128
83,350	-0,089	-0,126
83,400	-0,088	-0,127
83,450	-0,087	-0,125
83,500	-0,087	-0,126
83,550	-0,087	-0,125
83,600	-0,087	-0,126
83,650	-0,086	-0,124
83,700	-0,086	-0,125
83,750	-0,086	-0,124
83,800	-0,086	-0,125
83,850	-0,086	-0,124
83,900	-0,085	-0,125
83,950	-0,085	-0,123
84,000	-0,084	-0,124
84,050	-0,084	-0,123
84,100	-0,084	-0,123
84,150	-0,083	-0,122
84,200	-0,083	-0,123
84,250	-0,082	-0,121
84,300	-0,082	-0,122
84,350	-0,082	-0,121
84,400	-0,081	-0,122
84,450	-0,080	-0,120
84,500	-0,080	-0,121
84,550	-0,079	-0,119
84,600	-0,079	-0,120
84,650	-0,079	-0,119
84,700	-0,078	-0,119
84,750	-0,077	-0,118
84,800	-0,077	-0,118
84,850	-0,076	-0,117
84,900	-0,076	-0,118
84,950	-0,075	-0,116
85,000	-0,075	-0,117
85,050	-0,074	-0,115
85,100	-0,074	-0,116
85,150	-0,073	-0,114
85,200	-0,073	-0,115
85,250	-0,072	-0,113
85,300	-0,071	-0,114
85,350	-0,071	-0,112
85,400	-0,071	-0,113
85,450	-0,070	-0,112
85,500	-0,069	-0,112
85,550	-0,069	-0,110
85,600	-0,068	-0,111
85,650	-0,068	-0,109
85,700	-0,067	-0,110
85,750	-0,067	-0,108
85,800	-0,067	-0,109
85,850	-0,066	-0,108
85,900	-0,066	-0,109
85,950	-0,066	-0,107
86,000	-0,066	-0,108
86,050	-0,066	-0,107
86,100	-0,066	-0,108
86,150	-0,066	-0,107
86,200	-0,065	-0,107
86,250	-0,065	-0,106
86,300	-0,065	-0,108
86,350	-0,065	-0,106
86,400	-0,065	-0,107
86,450	-0,065	-0,106
86,500	-0,065	-0,107
86,550	-0,065	-0,106
86,600	-0,064	-0,107
86,650	-0,064	-0,105
86,700	-0,062	-0,106
86,750	-0,062	-0,104
86,800	-0,062	-0,105
86,850	-0,061	-0,103
86,900	-0,060	-0,103
86,950	-0,060	-0,102
87,000	-0,059	-0,102
87,050	-0,059	-0,101
87,100	-0,058	-0,101
87,150	-0,058	-0,099
87,200	-0,057	-0,100
87,250	-0,057	-0,099
87,300	-0,056	-0,099
87,350	-0,056	-0,097
87,400	-0,055	-0,098
87,450	-0,054	-0,096
87,500	-0,054	-0,096
87,550	-0,053	-0,094
87,600	-0,052	-0,095
87,650	-0,052	-0,093
87,700	-0,051	-0,093
87,750	-0,050	-0,091
87,800	-0,049	-0,091
87,850	-0,048	-0,089
87,900	-0,047	-0,089
87,950	-0,046	-0,086
88,000	-0,045	-0,086
88,050	-0,044	-0,084
88,100	-0,043	-0,084
88,150	-0,042	-0,082
88,200	-0,041	-0,082
88,250	-0,041	-0,080
88,300	-0,040	-0,080
88,350	-0,040	-0,078
88,400	-0,040	-0,079
88,450	-0,039	-0,076
88,500	-0,039	-0,077
88,550	-0,038	-0,076
88,600	-0,038	-0,076
88,650	-0,038	-0,075
88,700	-0,037	-0,075
88,750	-0,037	-0,073
88,800	-0,036	-0,074
88,850	-0,035	-0,072
88,900	-0,034	-0,072
88,950	-0,033	-0,069
89,000	-0,032	-0,069
89,050	-0,032	-0,067
89,100	-0,031	-0,067
89,150	-0,030	-0,064
89,200	-0,029	-0,064
89,250	-0,028	-0,062
89,300	-0,028	-0,062
89,350	-0,027	-0,059
89,400	-0,027	-0,060
89,450	-0,026	-0,057
89,500	-0,025	-0,057
89,550	-0,024	-0,055
89,600	-0,024	-0,055
89,650	-0,023	-0,052
89,700	-0,023	-0,053
89,750	-0,023	-0,051
89,800	-0,022	-0,051
89,850	-0,022	-0,049
89,900	-0,021	-0,049
89,950	-0,021	-0,048
90,000	-0,020	-0,048
90,050	-0,019	-0,046
90,100	-0,018	-0,045
90,150	-0,017	-0,042
90,200	-0,016	-0,041
90,250	-0,014	-0,038
90,300	-0,014	-0,037
90,350	-0,013	-0,034
90,400	-0,012	-0,034
90,450	-0,011	-0,031
90,500	-0,011	-0,030
90,550	-0,010	-0,027
90,600	-0,010	-0,027
90,650	-0,008	-0,024
90,700	-0,008	-0,023
90,750	-0,007	-0,021
90,800	-0,007	-0,020
90,850	-0,006	-0,018
90,900	-0,006	-0,017
90,950	-0,006	-0,015
91,000	-0,005	-0,015
91,050	-0,005	-0,013
91,100	-0,004	-0,013
91,150	-0,004	-0,011
91,200	-0,004	-0,010
91,250	-0,003	-0,009
91,300	-0,003	-0,009
91,350	-0,003	-0,007
91,400	-0,003	-0,007
91,450	-0,002	-0,005
91,500	-0,002	-0,005
91,550	-0,002	-0,004
91,600	-0,002	-0,005
91,650	-0,002	-0,003
91,700	-0,002	-0,003
91,750	-0,002	-0,002
91,800	-0,002	-0,002
91,850	-0,001	-8,031E-4
91,900	-0,001	-0,001
91,950	-9,388E-4	2,919E-4
92,000	-9,132E-4	-3,270E-4
92,050	-9,852E-4	7,887E-4
92,100	-4,933E-4	6,129E-4
92,150	-7,081E-4	0,002
92,200	-5,360E-4	0,001
92,250	-5,311E-4	0,002
92,300	-5,043E-4	0,002
92,350	-3,248E-4	0,003
92,400	-2,186E-4	0,002
92,450	-3,871E-4	0,003
92,500	-1,515E-4	0,003
92,550	-2,089E-4	0,004
92,600	3,406E-5	0,004
92,650	2,111E-4	0,005
92,700	9,143E-5	0,004
92,750	4,761E-6	0,005
92,800	3,380E-4	0,005
92,850	8,167E-5	0,005
92,900	5,016E-4	0,005
92,950	3,051E-4	0,006
93,000	5,052E-4	0,005
93,050	6,298E-4	0,007
93,100	7,054E-4	0,006
93,150	5,114E-4	0,007
93,200	7,177E-4	0,006
93,250	7,030E-4	0,007
93,300	5,577E-4	0,006
93,350	8,177E-4	0,007
93,400	8,190E-4	0,007
93,450	9,203E-4	0,008
93,500	9,142E-4	0,007
93,550	9,716E-4	0,008
93,600	8,116E-4	0,007
93,650	0,001	0,008
93,700	8,300E-4	0,007
93,750	9,081E-4	0,008
93,800	0,001	0,008
93,850	0,001	0,008
93,900	9,667E-4	0,008
93,950	9,240E-4	0,009
94,000	6,530E-4	0,007
94,050	8,507E-4	0,009
94,100	9,105E-4	0,008
94,150	0,001	0,009
94,200	8,507E-4	0,008
94,250	8,153E-4	0,009
94,300	8,361E-4	0,008
94,350	5,370E-4	0,008
94,400	9,630E-4	0,008
94,450	6,066E-4	0,008
94,500	9,044E-4	0,008
94,550	7,262E-4	0,008
94,600	0,001	0,008
94,650	0,001	0,009
94,700	0,002	0,009
94,750	0,003	0,011
94,800	0,005	0,013
94,850	0,006	0,017
94,900	0,007	0,019
94,950	0,008	0,023
95,000	0,009	0,026
95,050	0,010	0,030
95,100	0,010	0,031
95,150	0,011	0,035
95,200	0,011	0,037
95,250	0,011	0,040
95,300	0,012	0,042
95,350	0,012	0,045
95,400	0,012	0,046
95,450	0,013	0,049
95,500	0,013	0,050
95,550	0,013	0,053
95,600	0,013	0,054
95,650	0,014	0,057
95,700	0,014	0,058
95,750	0,014	0,061
95,800	0,015	0,062
95,850	0,015	0,065
95,900	0,015	0,066
95,950	0,015	0,069
96,000	0,015	0,070
96,050	0,016	0,073
96,100	0,016	0,074
96,150	0,016	0,077
96,200	0,016	0,077
96,250	0,017	0,081
96,300	0,017	0,082
96,350	0,018	0,086
96,400	0,018	0,088
96,450	0,018	0,091
96,500	0,018	0,093
96,550	0,019	0,096
96,600	0,019	0,098
96,650	0,019	0,101
96,700	0,019	0,102
96,750	0,019	0,105
96,800	0,019	0,107
96,850	0,019	0,110
96,900	0,019	0,111
96,950	0,020	0,114
97,000	0,020	0,116
97,050	0,020	0,119
97,100	0,020	0,121
97,150	0,020	0,124
97,200	0,021	0,126
97,250	0,021	0,130
97,300	0,021	0,132
97,350	0,022	0,136
97,400	0,022	0,138
97,450	0,022	0,142
97,500	0,022	0,144
97,550	0,023	0,148
97,600	0,022	0,150
97,650	0,023	0,154
97,700	0,023	0,157
97,750	0,023	0,161
97,800	0,023	0,163
97,850	0,024	0,167
97,900	0,024	0,169
97,950	0,024	0,173
98,000	0,024	0,175
98,050	0,024	0,179
98,100	0,024	0,181
98,150	0,024	0,184
98,200	0,025	0,186
98,250	0,025	0,190
98,300	0,025	0,192
98,350	0,025	0,195
98,400	0,025	0,197
98,450	0,025	0,201
98,500	0,025	0,202
98,550	0,025	0,206
98,600	0,025	0,207
98,650	0,025	0,211
98,700	0,026	0,213
98,750	0,026	0,217
98,800	0,026	0,219
98,850	0,026	0,223
98,900	0,027	0,226
98,950	0,027	0,229
99,000	0,027	0,231
99,050	0,027	0,235
99,100	0,027	0,238
99,150	0,028	0,241
99,200	0,028	0,243
99,250	0,028	0,247
99,300	0,028	0,249
99,350	0,028	0,253
99,400	0,028	0,255
99,450	0,029	0,260
99,500	0,029	0,262
99,550	0,030	0,267
99,600	0,030	0,271
99,650	0,031	0,276
99,700	0,031	0,279
99,750	0,032	0,285
99,800	0,032	0,288
99,850	0,032	0,293
99,900	0,033	0,297
99,950	0,033	0,302
100,000	0,033	0,305
100,050	0,033	0,310
100,100	0,034	0,314
100,150	0,034	0,319
100,200	0,035	0,322
100,250	0,035	0,327
100,300	0,035	0,330
100,350	0,036	0,335
100,400	0,036	0,338
100,450	0,036	0,343
100,500	0,037	0,346
100,550	0,037	0,350
100,600	0,037	0,353
100,650	0,037	0,358
100,700	0,037	0,360
100,750	0,038	0,365
100,800	0,038	0,367
100,850	0,038	0,371
100,900	0,038	0,374
100,950	0,038	0,378
101,000	0,039	0,380
101,050	0,039	0,384
101,100	0,040	0,387
101,150	0,040	0,391
101,200	0,041	0,394
101,250	0,041	0,399
101,300	0,042	0,402
101,350	0,042	0,406
101,400	0,043	0,409
101,450	0,044	0,414
101,500	0,044	0,417
101,550	0,045	0,423
101,600	0,046	0,426
101,650	0,047	0,432
101,700	0,048	0,435
101,750	0,048	0,441
101,800	0,049	0,445
101,850	0,050	0,450
101,900	0,051	0,454
101,950	0,052	0,459
102,000	0,052	0,462
102,050	0,053	0,467
102,100	0,054	0,470
102,150	0,054	0,475
102,200	0,056	0,478
102,250	0,057	0,484
102,300	0,058	0,487
102,350	0,059	0,492
102,400	0,059	0,495
102,450	0,060	0,500
102,500	0,061	0,503
102,550	0,062	0,507
102,600	0,062	0,509
102,650	0,063	0,513
102,700	0,064	0,515
102,750	0,065	0,519
102,800	0,066	0,521
102,850	0,066	0,525
102,900	0,068	0,527
102,950	0,069	0,531
103,000	0,069	0,533
103,050	0,071	0,537
103,100	0,072	0,539
103,150	0,073	0,543
103,200	0,074	0,545
103,250	0,075	0,549
103,300	0,075	0,550
103,350	0,076	0,554
103,400	0,077	0,555
103,450	0,079	0,559
103,500	0,079	0,560
103,550	0,080	0,563
103,600	0,081	0,565
103,650	0,082	0,568
103,700	0,083	0,570
103,750	0,084	0,573
103,800	0,085	0,573
103,850	0,085	0,576
103,900	0,086	0,577
103,950	0,087	0,579
104,000	0,087	0,579
104,050	0,087	0,581
104,100	0,088	0,582
104,150	0,088	0,584
104,200	0,089	0,583
104,250	0,089	0,585
104,300	0,090	0,586
104,350	0,091	0,588
104,400	0,092	0,589
104,450	0,093	0,591
104,500	0,094	0,592
104,550	0,095	0,595
104,600	0,096	0,595
104,650	0,097	0,598
104,700	0,098	0,599
104,750	0,099	0,601
104,800	0,100	0,602
104,850	0,101	0,604
104,900	0,102	0,605
104,950	0,103	0,608
105,000	0,104	0,608
105,050	0,105	0,611
105,100	0,106	0,611
105,150	0,107	0,613
105,200	0,108	0,614
105,250	0,108	0,616
105,300	0,109	0,617
105,350	0,110	0,619
105,400	0,111	0,619
105,450	0,111	0,621
105,500	0,112	0,620
105,550	0,112	0,622
105,600	0,113	0,622
105,650	0,113	0,623
105,700	0,113	0,623
105,750	0,113	0,624
105,800	0,114	0,624
105,850	0,116	0,625
105,900	0,116	0,626
105,950	0,117	0,627
106,000	0,117	0,627
106,050	0,118	0,629
106,100	0,119	0,629
106,150	0,120	0,630
106,200	0,120	0,630
106,250	0,121	0,632
106,300	0,122	0,632
106,350	0,122	0,634
106,400	0,123	0,633
106,450	0,125	0,636
106,500	0,125	0,635
106,550	0,126	0,637
106,600	0,127	0,637
106,650	0,128	0,639
106,700	0,129	0,639
106,750	0,131	0,642
106,800	0,132	0,642
106,850	0,133	0,644
106,900	0,135	0,645
106,950	0,136	0,647
107,000	0,137	0,648
107,050	0,138	0,649
107,100	0,139	0,649
107,150	0,139	0,651
107,200	0,140	0,650
107,250	0,141	0,652
107,300	0,142	0,652
107,350	0,143	0,654
107,400	0,143	0,653
107,450	0,144	0,655
107,500	0,144	0,654
107,550	0,145	0,656
107,600	0,145	0,655
107,650	0,145	0,656
107,700	0,145	0,656
107,750	0,145	0,656
107,800	0,146	0,656
107,850	0,146	0,657
107,900	0,147	0,657
107,950	0,149	0,658
108,000	0,150	0,659
108,050	0,152	0,661
108,100	0,153	0,661
108,150	0,155	0,663
108,200	0,156	0,663
108,250	0,157	0,665
108,300	0,158	0,665
108,350	0,159	0,666
108,400	0,160	0,666
108,450	0,161	0,668
108,500	0,162	0,668
108,550	0,163	0,669
108,600	0,164	0,669
108,650	0,165	0,670
108,700	0,165	0,670
108,750	0,166	0,671
108,800	0,166	0,671
108,850	0,167	0,672
108,900	0,167	0,672
108,950	0,167	0,673
109,000	0,167	0,672
109,050	0,167	0,673
109,100	0,168	0,672
109,150	0,168	0,673
109,200	0,170	0,673
109,250	0,171	0,674
109,300	0,172	0,674
109,350	0,173	0,676
109,400	0,174	0,676
109,450	0,174	0,677
109,500	0,176	0,677
109,550	0,177	0,678
109,600	0,178	0,678
109,650	0,180	0,680
109,700	0,181	0,680
109,750	0,183	0,682
109,800	0,184	0,682
109,850	0,185	0,683
109,900	0,186	0,683
109,950	0,187	0,684
110,000	0,188	0,684
110,050	0,189	0,685
110,100	0,190	0,685
110,150	0,191	0,686
110,200	0,192	0,686
110,250	0,193	0,687
110,300	0,194	0,687
110,350	0,194	0,688
110,400	0,195	0,687
110,450	0,196	0,689
110,500	0,197	0,688
110,550	0,197	0,689
110,600	0,198	0,689
110,650	0,199	0,690
110,700	0,199	0,689
110,750	0,199	0,690
110,800	0,200	0,690
110,850	0,200	0,691
110,900	0,200	0,690
110,950	0,200	0,691
111,000	0,201	0,690
111,050	0,202	0,691
111,100	0,204	0,691
111,150	0,205	0,693
111,200	0,206	0,692
111,250	0,206	0,693
111,300	0,207	0,693
111,350	0,209	0,694
111,400	0,210	0,694
111,450	0,211	0,695
111,500	0,211	0,695
111,550	0,213	0,696
111,600	0,214	0,696
111,650	0,214	0,697
111,700	0,215	0,697
111,750	0,217	0,698
111,800	0,217	0,697
111,850	0,218	0,698
111,900	0,219	0,698
111,950	0,221	0,700
112,000	0,222	0,699
112,050	0,224	0,701
112,100	0,226	0,700
112,150	0,228	0,702
112,200	0,228	0,701
112,250	0,228	0,702
112,300	0,229	0,702
112,350	0,229	0,702
112,400	0,230	0,702
112,450	0,230	0,703
112,500	0,230	0,703
112,550	0,230	0,703
112,600	0,232	0,703
112,650	0,235	0,704
112,700	0,237	0,704
112,750	0,240	0,706
112,800	0,242	0,706
112,850	0,243	0,707
112,900	0,244	0,707
112,950	0,246	0,709
113,000	0,247	0,708
113,050	0,248	0,709
113,100	0,250	0,709
113,150	0,251	0,710
113,200	0,253	0,710
113,250	0,254	0,711
113,300	0,255	0,710
113,350	0,256	0,711
113,400	0,256	0,711
113,450	0,257	0,712
113,500	0,259	0,712
113,550	0,259	0,712
113,600	0,260	0,712
113,650	0,261	0,713
113,700	0,261	0,712
113,750	0,262	0,713
113,800	0,265	0,713
113,850	0,267	0,715
113,900	0,269	0,714
113,950	0,271	0,716
114,000	0,272	0,715
114,050	0,273	0,716
114,100	0,274	0,716
114,150	0,275	0,717
114,200	0,275	0,716
114,250	0,277	0,717
114,300	0,278	0,717
114,350	0,279	0,718
114,400	0,281	0,718
114,450	0,282	0,718
114,500	0,282	0,718
114,550	0,283	0,719
114,600	0,283	0,718
114,650	0,283	0,719
114,700	0,283	0,718
114,750	0,283	0,719
114,800	0,283	0,718
114,850	0,283	0,719
114,900	0,284	0,718
114,950	0,285	0,719
115,000	0,288	0,719
115,050	0,290	0,721
115,100	0,292	0,720
115,150	0,293	0,721
115,200	0,295	0,721
115,250	0,297	0,722
115,300	0,300	0,722
115,350	0,301	0,723
115,400	0,303	0,723
115,450	0,305	0,724
115,500	0,308	0,723
115,550	0,310	0,725
115,600	0,311	0,725
115,650	0,312	0,725
115,700	0,313	0,725
115,750	0,313	0,726
115,800	0,314	0,725
115,850	0,314	0,726
115,900	0,314	0,725
115,950	0,314	0,726
116,000	0,314	0,725
116,050	0,317	0,726
116,100	0,320	0,726
116,150	0,324	0,728
116,200	0,328	0,728
116,250	0,330	0,729
116,300	0,332	0,729
116,350	0,333	0,729
116,400	0,334	0,729
116,450	0,334	0,730
116,500	0,335	0,729
116,550	0,336	0,730
116,600	0,337	0,730
116,650	0,337	0,730
116,700	0,338	0,730
116,750	0,338	0,731
116,800	0,339	0,730
116,850	0,343	0,731
116,900	0,348	0,732
116,950	0,352	0,733
117,000	0,355	0,733
117,050	0,357	0,733
117,100	0,357	0,733
117,150	0,356	0,734
117,200	0,356	0,733
117,250	0,356	0,734
117,300	0,356	0,733
117,350	0,356	0,734
117,400	0,356	0,733
117,450	0,356	0,734
117,500	0,357	0,733
117,550	0,361	0,734
117,600	0,365	0,734
117,650	0,368	0,736
117,700	0,371	0,735
117,750	0,374	0,736
117,800	0,376	0,736
117,850	0,378	0,737
117,900	0,378	0,737
117,950	0,379	0,737
118,000	0,379	0,737
118,050	0,380	0,737
118,100	0,382	0,737
118,150	0,382	0,738
118,200	0,382	0,737
118,250	0,383	0,738
118,300	0,385	0,738
118,350	0,388	0,738
118,400	0,389	0,738
118,450	0,390	0,739
118,500	0,391	0,738
118,550	0,393	0,739
118,600	0,395	0,739
118,650	0,396	0,740
118,700	0,399	0,740
118,750	0,401	0,740
118,800	0,402	0,740
118,850	0,402	0,741
118,900	0,404	0,740
118,950	0,407	0,741
119,000	0,410	0,741
119,050	0,413	0,742
119,100	0,416	0,742
119,150	0,420	0,743
119,200	0,423	0,743
119,250	0,426	0,744
119,300	0,427	0,743
119,350	0,429	0,744
119,400	0,429	0,744
119,450	0,429	0,744
119,500	0,429	0,744
119,550	0,429	0,744
119,600	0,428	0,744
119,650	0,428	0,744
119,700	0,428	0,744
119,750	0,429	0,744
119,800	0,432	0,744
119,850	0,434	0,745
119,900	0,437	0,745
119,950	0,440	0,746
120,000	0,444	0,746
120,050	0,448	0,746
120,100	0,450	0,746
120,150	0,454	0,747
120,200	0,455	0,747
120,250	0,455	0,748
120,300	0,454	0,747
120,350	0,453	0,748
120,400	0,454	0,747
120,450	0,454	0,747
120,500	0,455	0,747
120,550	0,457	0,748
120,600	0,460	0,747
120,650	0,466	0,749
120,700	0,470	0,749
120,750	0,472	0,749
120,800	0,473	0,749
120,850	0,475	0,750
120,900	0,477	0,749
120,950	0,480	0,750
121,000	0,483	0,750
121,050	0,485	0,751
121,100	0,486	0,751
121,150	0,487	0,751
121,200	0,488	0,751
121,250	0,488	0,751
121,300	0,488	0,751
121,350	0,489	0,751
121,400	0,489	0,751
121,450	0,489	0,751
121,500	0,490	0,751
121,550	0,493	0,751
121,600	0,497	0,752
121,650	0,499	0,752
121,700	0,500	0,752
121,750	0,505	0,753
121,800	0,509	0,753
121,850	0,513	0,754
121,900	0,516	0,753
121,950	0,518	0,754
122,000	0,520	0,754
122,050	0,523	0,754
122,100	0,527	0,755
122,150	0,530	0,755
122,200	0,532	0,755
122,250	0,533	0,755
122,300	0,534	0,755
122,350	0,534	0,756
122,400	0,535	0,756
122,450	0,535	0,756
122,500	0,536	0,755
122,550	0,536	0,756
122,600	0,536	0,756
122,650	0,536	0,756
122,700	0,537	0,756
122,750	0,544	0,757
122,800	0,552	0,757
122,850	0,558	0,758
122,900	0,562	0,758
122,950	0,566	0,759
123,000	0,570	0,759
123,050	0,571	0,759
123,100	0,572	0,759
123,150	0,573	0,759
123,200	0,573	0,759
123,250	0,574	0,759
123,300	0,574	0,759
123,350	0,574	0,760
123,400	0,575	0,759
123,450	0,577	0,760
123,500	0,582	0,760
123,550	0,587	0,760
123,600	0,591	0,761
123,650	0,594	0,761
123,700	0,598	0,761
123,750	0,599	0,761
123,800	0,601	0,762
123,850	0,601	0,761
123,900	0,602	0,762
123,950	0,602	0,762
124,000	0,602	0,762
124,050	0,602	0,762
124,100	0,604	0,762
124,150	0,608	0,762
124,200	0,608	0,762
124,250	0,611	0,763
124,300	0,613	0,762
124,350	0,615	0,763
124,400	0,618	0,763
124,450	0,623	0,763
124,500	0,630	0,764
124,550	0,634	0,764
124,600	0,636	0,765
124,650	0,636	0,764
124,700	0,636	0,764
124,750	0,637	0,765
124,800	0,637	0,765
124,850	0,637	0,765
124,900	0,637	0,764
124,950	0,637	0,765
125,000	0,637	0,765
125,050	0,637	0,764
125,100	0,639	0,764
125,150	0,646	0,765
125,200	0,652	0,766
125,250	0,655	0,766
125,300	0,656	0,766
125,350	0,658	0,766
125,400	0,659	0,766
125,450	0,661	0,766
125,500	0,662	0,766
125,550	0,663	0,767
125,600	0,663	0,766
125,650	0,663	0,766
125,700	0,664	0,766
125,750	0,664	0,767
125,800	0,665	0,767
125,850	0,670	0,767
125,900	0,678	0,768
125,950	0,682	0,768
126,000	0,685	0,768
126,050	0,690	0,768
126,100	0,693	0,769
126,150	0,694	0,769
126,200	0,696	0,769
126,250	0,699	0,769
126,300	0,704	0,770
126,350	0,704	0,769
126,400	0,705	0,770
126,450	0,706	0,770
126,500	0,706	0,770
126,550	0,707	0,770
126,600	0,707	0,770
126,650	0,707	0,770
126,700	0,707	0,770
126,750	0,708	0,770
126,800	0,711	0,770
126,850	0,715	0,770
126,900	0,718	0,770
126,950	0,720	0,771
127,000	0,722	0,770
127,050	0,723	0,771
127,100	0,725	0,771
127,150	0,726	0,771
127,200	0,727	0,771
127,250	0,727	0,771
127,300	0,730	0,771
127,350	0,732	0,772
127,400	0,733	0,771
127,450	0,736	0,772
127,500	0,737	0,772
127,550	0,738	0,772
127,600	0,738	0,772
127,650	0,738	0,772
127,700	0,737	0,771
127,750	0,738	0,772
127,800	0,738	0,772
127,850	0,738	0,772
127,900	0,738	0,772
127,950	0,739	0,772
128,000	0,738	0,772
128,050	0,741	0,772
128,100	0,746	0,772
128,150	0,747	0,772
128,200	0,747	0,773
128,250	0,750	0,772
128,300	0,755	0,773
128,350	0,758	0,773
128,400	0,762	0,773
128,450	0,767	0,774
128,500	0,770	0,774
128,550	0,771	0,774
128,600	0,772	0,774
128,650	0,772	0,774
128,700	0,772	0,774
128,750	0,772	0,774
128,800	0,773	0,774
128,850	0,775	0,774
128,900	0,776	0,774
128,950	0,778	0,775
129,000	0,784	0,774
129,050	0,789	0,775
129,100	0,791	0,775
129,150	0,794	0,776
129,200	0,796	0,775
129,250	0,798	0,775
129,300	0,801	0,776
129,350	0,804	0,776
129,400	0,808	0,776
129,450	0,810	0,776
129,500	0,811	0,777
129,550	0,812	0,776
129,600	0,812	0,776
129,650	0,812	0,776
129,700	0,813	0,776
129,750	0,813	0,777
129,800	0,814	0,776
129,850	0,815	0,777
129,900	0,820	0,777
129,950	0,826	0,777
130,000	0,830	0,777
130,050	0,833	0,778
130,100	0,835	0,778
130,150	0,837	0,778
130,200	0,838	0,778
130,250	0,839	0,778
130,300	0,840	0,778
130,350	0,840	0,778
130,400	0,843	0,778
130,450	0,845	0,778
130,500	0,846	0,779
130,550	0,846	0,779
130,600	0,848	0,778
130,650	0,851	0,779
130,700	0,852	0,779
130,750	0,852	0,779
130,800	0,853	0,779
130,850	0,853	0,779
130,900	0,853	0,779
130,950	0,853	0,779
131,000	0,853	0,779
131,050	0,853	0,779
131,100	0,854	0,779
131,150	0,854	0,779
131,200	0,854	0,779
131,250	0,855	0,779
131,300	0,860	0,779
131,350	0,865	0,780
131,400	0,867	0,779
131,450	0,867	0,780
131,500	0,867	0,780
131,550	0,869	0,780
131,600	0,873	0,780
131,650	0,876	0,780
131,700	0,877	0,780
131,750	0,879	0,780
131,800	0,881	0,780
131,850	0,884	0,781
131,900	0,888	0,781
131,950	0,890	0,781
132,000	0,893	0,781
132,050	0,895	0,781
132,100	0,897	0,781
132,150	0,898	0,782
132,200	0,899	0,782
132,250	0,898	0,782
132,300	0,899	0,781
132,350	0,899	0,782
132,400	0,899	0,782
132,450	0,899	0,782
132,500	0,899	0,781
132,550	0,902	0,782
132,600	0,906	0,782
132,650	0,910	0,782
132,700	0,913	0,782
132,750	0,916	0,783
132,800	0,920	0,782
132,850	0,924	0,783
132,900	0,927	0,783
132,950	0,928	0,783
133,000	0,929	0,783
133,050	0,929	0,783
133,100	0,930	0,783
133,150	0,930	0,783
133,200	0,930	0,783
133,250	0,930	0,783
133,300	0,932	0,783
133,350	0,937	0,784
133,400	0,941	0,783
133,450	0,944	0,784
133,500	0,945	0,784
133,550	0,945	0,784
133,600	0,945	0,784
133,650	0,945	0,784
133,700	0,945	0,784
133,750	0,945	0,784
133,800	0,945	0,784
133,850	0,948	0,785
133,900	0,950	0,784
133,950	0,951	0,785
134,000	0,952	0,784
134,050	0,952	0,785
134,100	0,954	0,784
134,150	0,955	0,785
134,200	0,955	0,784
134,250	0,955	0,785
134,300	0,955	0,785
134,350	0,955	0,785
134,400	0,955	0,784
134,450	0,955	0,785
134,500	0,955	0,784
134,550	0,955	0,785
134,600	0,955	0,784
134,650	0,955	0,785
134,700	0,956	0,784
134,750	0,959	0,785
134,800	0,963	0,785
134,850	0,964	0,786
134,900	0,966	0,785
134,950	0,967	0,786
135,000	0,970	0,785
135,050	0,973	0,786
135,100	0,974	0,785
135,150	0,975	0,786
135,200	0,975	0,785
135,250	0,975	0,786
135,300	0,975	0,785
135,350	0,975	0,786
135,400	0,975	0,785
135,450	0,975	0,786
135,500	0,975	0,786
135,550	0,975	0,786
135,600	0,975	0,785
135,650	0,975	0,786
135,700	0,976	0,785
135,750	0,982	0,786
135,800	0,987	0,786
135,850	0,990	0,787
135,900	0,990	0,786
135,950	0,990	0,786
136,000	0,993	0,786
136,050	0,995	0,787
136,100	0,998	0,787
136,150	1,000	0,787
136,200	1,001	0,787
136,250	1,001	0,787
136,300	1,001	0,787
136,350	1,001	0,787
136,400	1,001	0,787
136,450	1,001	0,787
136,500	1,001	0,786
136,550	1,001	0,787
136,600	1,001	0,787
136,650	1,001	0,787
136,700	1,002	0,787
136,750	1,001	0,787
136,800	1,001	0,787
136,850	1,001	0,787
136,900	1,001	0,787
136,950	1,002	0,788
137,000	1,001	0,787
137,050	1,001	0,787
137,100	1,001	0,787
137,150	1,002	0,788
137,200	1,001	0,786
137,250	1,001	0,787
137,300	1,001	0,786
137,350	1,001	0,787
137,400	1,001	0,786
137,450	1,001	0,787
137,500	1,001	0,787
137,550	1,001	0,787
137,600	1,001	0,787
137,650	1,001	0,787
137,700	1,001	0,787
137,750	1,002	0,788
137,800	1,001	0,787
137,850	1,001	0,787
137,900	1,002	0,787
137,950	1,001	0,787
138,000	1,002	0,787
138,050	1,001	0,787
138,100	0,999	0,787
138,150	0,998	0,787
138,200	0,997	0,786
138,250	0,998	0,787
138,300	0,998	0,786
138,350	0,997	0,787
138,400	0,996	0,786
138,450	0,996	0,787
138,500	0,996	0,786
138,550	0,996	0,787
138,600	0,996	0,786
138,650	0,996	0,787
138,700	0,995	0,786
138,750	0,995	0,787
138,800	0,994	0,786
138,850	0,992	0,787
138,900	0,987	0,786
138,950	0,982	0,787
139,000	0,981	0,786
139,050	0,981	0,786
139,100	0,981	0,786
139,150	0,981	0,786
139,200	0,981	0,786
139,250	0,981	0,786
139,300	0,981	0,786
139,350	0,981	0,786
139,400	0,981	0,786
139,450	0,981	0,787
139,500	0,981	0,786
139,550	0,978	0,786
139,600	0,978	0,786
139,650	0,977	0,786
139,700	0,974	0,785
139,750	0,970	0,786
139,800	0,964	0,785
139,850	0,957	0,785
139,900	0,954	0,785
139,950	0,954	0,785
140,000	0,954	0,784
140,050	0,954	0,785
140,100	0,954	0,784
140,150	0,954	0,785
140,200	0,954	0,784
140,250	0,953	0,785
140,300	0,954	0,784
140,350	0,954	0,785
140,400	0,952	0,784
140,450	0,949	0,785
140,500	0,949	0,784
140,550	0,949	0,785
140,600	0,948	0,784
140,650	0,946	0,785
140,700	0,945	0,784
140,750	0,945	0,785
140,800	0,945	0,784
140,850	0,944	0,785
140,900	0,941	0,784
140,950	0,941	0,785
141,000	0,941	0,784
141,050	0,941	0,785
141,100	0,940	0,784
141,150	0,941	0,785
141,200	0,940	0,784
141,250	0,939	0,785
141,300	0,939	0,784
141,350	0,939	0,784
141,400	0,939	0,784
141,450	0,939	0,785
141,500	0,939	0,784
141,550	0,939	0,785
141,600	0,939	0,784
141,650	0,939	0,785
141,700	0,938	0,784
141,750	0,933	0,784
141,800	0,931	0,784
141,850	0,931	0,784
141,900	0,929	0,783
141,950	0,926	0,784
142,000	0,924	0,783
142,050	0,923	0,784
142,100	0,922	0,783
142,150	0,920	0,784
142,200	0,918	0,783
142,250	0,917	0,784
142,300	0,916	0,783
142,350	0,916	0,784
142,400	0,914	0,783
142,450	0,913	0,784
142,500	0,912	0,783
142,550	0,910	0,783
142,600	0,910	0,782
142,650	0,910	0,784
142,700	0,906	0,782
142,750	0,901	0,783
142,800	0,898	0,782
142,850	0,898	0,783
142,900	0,898	0,782
142,950	0,898	0,783
143,000	0,896	0,782
143,050	0,895	0,783
143,100	0,895	0,782
143,150	0,893	0,783
143,200	0,892	0,782
143,250	0,891	0,783
143,300	0,891	0,782
143,350	0,891	0,783
143,400	0,891	0,782
143,450	0,890	0,782
143,500	0,891	0,781
143,550	0,891	0,783
143,600	0,890	0,782
143,650	0,890	0,783
143,700	0,890	0,781
143,750	0,890	0,783
143,800	0,887	0,781
143,850	0,884	0,782
143,900	0,884	0,781
143,950	0,884	0,782
144,000	0,882	0,781
144,050	0,880	0,782
144,100	0,879	0,781
144,150	0,878	0,782
144,200	0,877	0,781
144,250	0,875	0,782
144,300	0,874	0,781
144,350	0,873	0,782
144,400	0,872	0,780
144,450	0,871	0,782
144,500	0,870	0,780
144,550	0,867	0,781
144,600	0,866	0,781
144,650	0,863	0,781
144,700	0,862	0,780
144,750	0,862	0,781
144,800	0,862	0,780
144,850	0,862	0,782
144,900	0,862	0,780
144,950	0,862	0,781
145,000	0,862	0,780
145,050	0,862	0,781
145,100	0,862	0,780
145,150	0,862	0,781
145,200	0,862	0,780
145,250	0,862	0,781
145,300	0,862	0,780
145,350	0,862	0,781
145,400	0,862	0,780
145,450	0,862	0,781
145,500	0,862	0,780
145,550	0,860	0,781
145,600	0,854	0,780
145,650	0,849	0,781
145,700	0,848	0,780
145,750	0,847	0,781
145,800	0,848	0,780
145,850	0,848	0,781
145,900	0,847	0,779
145,950	0,846	0,781
146,000	0,845	0,779
146,050	0,843	0,780
146,100	0,842	0,779
146,150	0,841	0,780
146,200	0,840	0,779
146,250	0,839	0,780
146,300	0,838	0,779
146,350	0,836	0,780
146,400	0,834	0,779
146,450	0,833	0,780
146,500	0,832	0,779
146,550	0,832	0,780
146,600	0,831	0,779
146,650	0,830	0,780
146,700	0,829	0,778
146,750	0,827	0,780
146,800	0,826	0,778
146,850	0,824	0,779
146,900	0,824	0,778
146,950	0,824	0,780
147,000	0,826	0,778
147,050	0,832	0,780
147,100	0,833	0,779
147,150	0,833	0,780
147,200	0,833	0,779
147,250	0,834	0,780
147,300	0,834	0,779
147,350	0,833	0,780
147,400	0,834	0,779
147,450	0,833	0,780
147,500	0,833	0,779
147,550	0,833	0,780
147,600	0,833	0,779
147,650	0,833	0,780
147,700	0,833	0,779
147,750	0,829	0,780
147,800	0,828	0,779
147,850	0,826	0,780
147,900	0,825	0,778
147,950	0,824	0,780
148,000	0,823	0,778
148,050	0,820	0,780
148,100	0,818	0,778
148,150	0,815	0,779
148,200	0,814	0,778
148,250	0,813	0,779
148,300	0,812	0,778
148,350	0,812	0,779
148,400	0,810	0,778
148,450	0,810	0,779
148,500	0,809	0,778
148,550	0,808	0,779
148,600	0,806	0,778
148,650	0,805	0,779
148,700	0,803	0,777
148,750	0,801	0,778
148,800	0,800	0,777
148,850	0,799	0,778
148,900	0,798	0,777
148,950	0,798	0,778
149,000	0,796	0,777
149,050	0,795	0,778
149,100	0,793	0,777
149,150	0,792	0,778
149,200	0,792	0,777
149,250	0,791	0,778
149,300	0,791	0,777
149,350	0,792	0,778
149,400	0,792	0,777
149,450	0,791	0,778
149,500	0,792	0,777
149,550	0,792	0,778
149,600	0,792	0,777
149,650	0,792	0,778
149,700	0,792	0,777
149,750	0,791	0,778
149,800	0,790	0,777
149,850	0,790	0,778
149,900	0,788	0,777
149,950	0,786	0,778
150,000	0,784	0,776
150,050	0,783	0,777
150,100	0,782	0,777
150,150	0,780	0,777
150,200	0,778	0,776
150,250	0,778	0,777
150,300	0,777	0,776
150,350	0,776	0,777
150,400	0,776	0,776
150,450	0,774	0,777
150,500	0,773	0,776
150,550	0,773	0,777
150,600	0,772	0,776
150,650	0,770	0,777
150,700	0,768	0,776
150,750	0,766	0,777
150,800	0,765	0,775
150,850	0,765	0,777
150,900	0,765	0,776
150,950	0,764	0,776
151,000	0,764	0,775
151,050	0,764	0,777
151,100	0,764	0,776
151,150	0,764	0,777
151,200	0,764	0,776
151,250	0,764	0,777
151,300	0,764	0,776
151,350	0,764	0,777
151,400	0,764	0,776
151,450	0,764	0,777
151,500	0,764	0,776
151,550	0,764	0,777
151,600	0,764	0,776
151,650	0,762	0,777
151,700	0,760	0,775
151,750	0,758	0,777
151,800	0,756	0,775
151,850	0,755	0,776
151,900	0,753	0,775
151,950	0,751	0,776
152,000	0,748	0,775
152,050	0,746	0,776
152,100	0,745	0,775
152,150	0,743	0,776
152,200	0,741	0,774
152,250	0,740	0,775
152,300	0,740	0,774
152,350	0,740	0,776
152,400	0,740	0,774
152,450	0,740	0,775
152,500	0,740	0,774
152,550	0,740	0,775
152,600	0,740	0,774
152,650	0,740	0,776
152,700	0,740	0,775
152,750	0,739	0,775
152,800	0,737	0,774
152,850	0,734	0,775
152,900	0,733	0,774
152,950	0,729	0,775
153,000	0,727	0,774
153,050	0,725	0,775
153,100	0,723	0,773
153,150	0,721	0,775
153,200	0,718	0,773
153,250	0,714	0,774
153,300	0,711	0,773
153,350	0,710	0,774
153,400	0,710	0,773
153,450	0,709	0,774
153,500	0,708	0,773
153,550	0,707	0,773
153,600	0,707	0,773
153,650	0,706	0,774
153,700	0,704	0,773
153,750	0,702	0,774
153,800	0,700	0,772
153,850	0,699	0,774
153,900	0,698	0,772
153,950	0,698	0,773
154,000	0,697	0,772
154,050	0,698	0,773
154,100	0,698	0,772
154,150	0,697	0,773
154,200	0,697	0,773
154,250	0,697	0,773
154,300	0,697	0,772
154,350	0,696	0,773
154,400	0,693	0,772
154,450	0,691	0,773
154,500	0,691	0,772
154,550	0,690	0,773
154,600	0,690	0,772
154,650	0,690	0,773
154,700	0,689	0,772
154,750	0,686	0,773
154,800	0,685	0,771
154,850	0,684	0,772
154,900	0,685	0,772
154,950	0,684	0,773
155,000	0,684	0,771
155,050	0,684	0,772
155,100	0,684	0,771
155,150	0,683	0,772
155,200	0,684	0,771
155,250	0,683	0,772
155,300	0,684	0,772
155,350	0,684	0,773
155,400	0,683	0,771
155,450	0,683	0,772
155,500	0,683	0,771
155,550	0,683	0,772
155,600	0,683	0,772
155,650	0,680	0,773
155,700	0,678	0,771
155,750	0,677	0,772
155,800	0,677	0,771
155,850	0,677	0,772
155,900	0,677	0,771
155,950	0,677	0,772
156,000	0,674	0,771
156,050	0,674	0,772
156,100	0,673	0,771
156,150	0,673	0,772
156,200	0,673	0,771
156,250	0,673	0,772
156,300	0,673	0,771
156,350	0,673	0,772
156,400	0,673	0,771
156,450	0,673	0,772
156,500	0,672	0,771
156,550	0,673	0,772
156,600	0,673	0,771
156,650	0,673	0,772
156,700	0,673	0,771
156,750	0,674	0,772
156,800	0,673	0,771
156,850	0,673	0,772
156,900	0,674	0,771
156,950	0,673	0,772
157,000	0,671	0,771
157,050	0,669	0,771
157,100	0,668	0,771
157,150	0,668	0,772
157,200	0,668	0,770
157,250	0,666	0,772
157,300	0,664	0,770
157,350	0,662	0,771
157,400	0,662	0,770
157,450	0,661	0,772
157,500	0,661	0,770
157,550	0,661	0,771
157,600	0,661	0,770
157,650	0,661	0,771
157,700	0,661	0,770
157,750	0,661	0,771
157,800	0,661	0,770
157,850	0,661	0,771
157,900	0,661	0,770
157,950	0,662	0,771
158,000	0,660	0,770
158,050	0,657	0,771
158,100	0,657	0,770
158,150	0,657	0,771
158,200	0,656	0,770
158,250	0,655	0,771
158,300	0,653	0,770
158,350	0,652	0,771
158,400	0,651	0,770
158,450	0,649	0,771
158,500	0,647	0,769
158,550	0,646	0,771
158,600	0,645	0,769
158,650	0,645	0,770
158,700	0,646	0,769
158,750	0,646	0,771
158,800	0,645	0,769
158,850	0,646	0,770
158,900	0,646	0,769
158,950	0,645	0,770
159,000	0,645	0,769
159,050	0,645	0,770
159,100	0,642	0,769
159,150	0,639	0,770
159,200	0,638	0,769
159,250	0,638	0,770
159,300	0,641	0,769
159,350	0,638	0,770
159,400	0,634	0,769
159,450	0,633	0,770
159,500	0,633	0,769
159,550	0,634	0,770
159,600	0,633	0,769
159,650	0,633	0,770
159,700	0,631	0,768
159,750	0,630	0,770
159,800	0,630	0,768
159,850	0,628	0,769
159,900	0,625	0,768
159,950	0,621	0,769
160,000	0,620	0,768
160,050	0,620	0,769
160,100	0,620	0,768
160,150	0,620	0,769
160,200	0,620	0,768
160,250	0,620	0,769
160,300	0,620	0,768
160,350	0,620	0,769
160,400	0,620	0,768
160,450	0,619	0,769
160,500	0,619	0,768
160,550	0,619	0,769
160,600	0,618	0,768
160,650	0,614	0,769
160,700	0,611	0,767
160,750	0,609	0,768
160,800	0,608	0,767
160,850	0,608	0,768
160,900	0,608	0,767
160,950	0,607	0,768
161,000	0,607	0,767
161,050	0,607	0,768
161,100	0,606	0,767
161,150	0,606	0,769
161,200	0,605	0,767
161,250	0,604	0,768
161,300	0,603	0,767
161,350	0,603	0,768
161,400	0,602	0,767
161,450	0,601	0,768
161,500	0,601	0,767
161,550	0,601	0,768
161,600	0,601	0,767
161,650	0,600	0,768
161,700	0,599	0,767
161,750	0,599	0,768
161,800	0,599	0,767
161,850	0,599	0,768
161,900	0,599	0,767
161,950	0,599	0,768
162,000	0,599	0,767
162,050	0,599	0,768
162,100	0,600	0,767
162,150	0,594	0,767
162,200	0,592	0,766
162,250	0,591	0,767
162,300	0,591	0,766
162,350	0,590	0,767
162,400	0,588	0,766
162,450	0,587	0,767
162,500	0,587	0,766
162,550	0,586	0,767
162,600	0,586	0,766
162,650	0,585	0,767
162,700	0,584	0,766
162,750	0,583	0,767
162,800	0,583	0,766
162,850	0,582	0,767
162,900	0,581	0,765
162,950	0,581	0,767
163,000	0,580	0,765
163,050	0,580	0,766
163,100	0,580	0,766
163,150	0,580	0,767
163,200	0,580	0,765
163,250	0,580	0,767
163,300	0,580	0,766
163,350	0,580	0,766
163,400	0,580	0,765
163,450	0,580	0,767
163,500	0,579	0,765
163,550	0,579	0,767
163,600	0,578	0,766
163,650	0,577	0,766
163,700	0,577	0,765
163,750	0,576	0,766
163,800	0,576	0,765
163,850	0,575	0,766
163,900	0,575	0,765
163,950	0,574	0,766
164,000	0,574	0,765
164,050	0,573	0,766
164,100	0,573	0,765
164,150	0,573	0,766
164,200	0,574	0,765
164,250	0,573	0,766
164,300	0,572	0,765
164,350	0,571	0,766
164,400	0,570	0,765
164,450	0,568	0,766
164,500	0,567	0,765
164,550	0,567	0,766
164,600	0,566	0,765
164,650	0,566	0,766
164,700	0,567	0,765
164,750	0,567	0,766
164,800	0,566	0,764
164,850	0,567	0,766
164,900	0,567	0,765
164,950	0,567	0,766
165,000	0,567	0,765
165,050	0,567	0,766
165,100	0,567	0,765
165,150	0,567	0,766
165,200	0,567	0,765
165,250	0,566	0,765
165,300	0,566	0,764
165,350	0,566	0,765
165,400	0,566	0,765
165,450	0,563	0,765
165,500	0,560	0,764
165,550	0,560	0,765
165,600	0,560	0,764
165,650	0,560	0,765
165,700	0,558	0,764
165,750	0,556	0,765
165,800	0,555	0,764
165,850	0,553	0,765
165,900	0,552	0,764
165,950	0,551	0,765
166,000	0,548	0,763
166,050	0,547	0,764
166,100	0,545	0,763
166,150	0,545	0,764
166,200	0,545	0,763
166,250	0,545	0,764
166,300	0,545	0,763
166,350	0,545	0,764
166,400	0,545	0,763
166,450	0,543	0,764
166,500	0,542	0,763
166,550	0,542	0,764
166,600	0,542	0,763
166,650	0,542	0,764
166,700	0,542	0,763
166,750	0,542	0,764
166,800	0,541	0,763
166,850	0,541	0,764
166,900	0,541	0,763
166,950	0,542	0,764
167,000	0,542	0,763
167,050	0,542	0,764
167,100	0,540	0,763
167,150	0,538	0,764
167,200	0,537	0,763
167,250	0,535	0,764
167,300	0,534	0,763
167,350	0,532	0,763
167,400	0,531	0,762
167,450	0,526	0,763
167,500	0,523	0,762
167,550	0,522	0,763
167,600	0,522	0,762
167,650	0,522	0,763
167,700	0,522	0,762
167,750	0,522	0,763
167,800	0,521	0,762
167,850	0,521	0,763
167,900	0,522	0,762
167,950	0,520	0,763
168,000	0,518	0,761
168,050	0,518	0,763
168,100	0,517	0,761
168,150	0,516	0,762
168,200	0,515	0,761
168,250	0,513	0,762
168,300	0,510	0,761
168,350	0,508	0,762
168,400	0,506	0,761
168,450	0,505	0,761
168,500	0,504	0,760
168,550	0,504	0,762
168,600	0,504	0,761
168,650	0,504	0,762
168,700	0,504	0,761
168,750	0,504	0,762
168,800	0,504	0,761
168,850	0,504	0,762
168,900	0,504	0,761
168,950	0,503	0,761
169,000	0,502	0,760
169,050	0,499	0,762
169,100	0,497	0,760
169,150	0,497	0,761
169,200	0,497	0,760
169,250	0,496	0,761
169,300	0,495	0,760
169,350	0,493	0,761
169,400	0,492	0,760
169,450	0,491	0,761
169,500	0,491	0,760
169,550	0,491	0,761
169,600	0,491	0,760
169,650	0,490	0,761
169,700	0,491	0,759
169,750	0,491	0,761
169,800	0,491	0,760
169,850	0,491	0,761
169,900	0,490	0,760
169,950	0,488	0,761
170,000	0,487	0,760
170,050	0,486	0,760
170,100	0,485	0,759
170,150	0,483	0,760
170,200	0,482	0,759
170,250	0,480	0,760
170,300	0,479	0,759
170,350	0,478	0,760
170,400	0,477	0,759
170,450	0,476	0,760
170,500	0,475	0,759
170,550	0,472	0,759
170,600	0,472	0,758
170,650	0,472	0,759
170,700	0,472	0,758
170,750	0,472	0,759
170,800	0,472	0,758
170,850	0,472	0,759
170,900	0,472	0,758
170,950	0,472	0,759
171,000	0,472	0,758
171,050	0,472	0,760
171,100	0,472	0,758
171,150	0,471	0,759
171,200	0,469	0,758
171,250	0,467	0,759
171,300	0,467	0,758
171,350	0,467	0,759
171,400	0,464	0,758
171,450	0,460	0,759
171,500	0,456	0,757
171,550	0,454	0,758
171,600	0,454	0,757
171,650	0,454	0,758
171,700	0,454	0,757
171,750	0,454	0,758
171,800	0,454	0,757
171,850	0,454	0,758
171,900	0,454	0,757
171,950	0,454	0,758
172,000	0,454	0,757
172,050	0,454	0,758
172,100	0,454	0,757
172,150	0,454	0,758
172,200	0,454	0,757
172,250	0,453	0,758
172,300	0,453	0,757
172,350	0,453	0,758
172,400	0,452	0,757
172,450	0,452	0,758
172,500	0,452	0,757
172,550	0,452	0,758
172,600	0,452	0,757
172,650	0,451	0,758
172,700	0,449	0,756
172,750	0,445	0,758
172,800	0,441	0,756
172,850	0,440	0,757
172,900	0,439	0,756
172,950	0,439	0,757
173,000	0,438	0,756
173,050	0,436	0,757
173,100	0,435	0,756
173,150	0,434	0,757
173,200	0,434	0,756
173,250	0,434	0,757
173,300	0,434	0,756
173,350	0,434	0,757
173,400	0,434	0,755
173,450	0,434	0,757
173,500	0,433	0,755
173,550	0,434	0,757
173,600	0,433	0,755
173,650	0,434	0,757
173,700	0,434	0,756
173,750	0,433	0,757
173,800	0,429	0,755
173,850	0,428	0,756
173,900	0,427	0,755
173,950	0,427	0,756
174,000	0,427	0,755
174,050	0,426	0,756
174,100	0,422	0,755
174,150	0,418	0,755
174,200	0,414	0,754
174,250	0,412	0,755
174,300	0,411	0,754
174,350	0,411	0,755
174,400	0,411	0,754
174,450	0,411	0,755
174,500	0,411	0,754
174,550	0,411	0,755
174,600	0,411	0,754
174,650	0,411	0,755
174,700	0,411	0,754
174,750	0,411	0,755
174,800	0,411	0,754
174,850	0,407	0,755
174,900	0,403	0,753
174,950	0,400	0,754
175,000	0,399	0,753
175,050	0,399	0,754
175,100	0,398	0,753
175,150	0,398	0,754
175,200	0,397	0,753
175,250	0,395	0,753
175,300	0,394	0,752
175,350	0,393	0,753
175,400	0,393	0,752
175,450	0,392	0,753
175,500	0,405	0,753
175,550	0,399	0,754
175,600	0,394	0,752
175,650	0,394	0,754
175,700	0,394	0,752
175,750	0,394	0,753
175,800	0,394	0,752
175,850	0,395	0,754
175,900	0,394	0,752
175,950	0,391	0,753
176,000	0,387	0,752
176,050	0,383	0,752
176,100	0,382	0,751
176,150	0,382	0,752
176,200	0,382	0,751
176,250	0,381	0,752
176,300	0,381	0,751
176,350	0,380	0,752
176,400	0,378	0,751
176,450	0,376	0,752
176,500	0,375	0,750
176,550	0,375	0,752
176,600	0,375	0,751
176,650	0,374	0,752
176,700	0,375	0,750
176,750	0,375	0,752
176,800	0,374	0,750
176,850	0,375	0,752
176,900	0,375	0,750
176,950	0,374	0,752
177,000	0,374	0,750
177,050	0,374	0,752
177,100	0,373	0,750
177,150	0,372	0,751
177,200	0,371	0,750
177,250	0,371	0,751
177,300	0,371	0,750
177,350	0,370	0,752
177,400	0,369	0,750
177,450	0,367	0,751
177,500	0,366	0,750
177,550	0,363	0,751
177,600	0,359	0,749
177,650	0,356	0,750
177,700	0,355	0,749
177,750	0,355	0,750
177,800	0,355	0,749
177,850	0,355	0,750
177,900	0,355	0,749
177,950	0,354	0,750
178,000	0,354	0,749
178,050	0,354	0,750
178,100	0,354	0,748
178,150	0,351	0,749
178,200	0,348	0,748
178,250	0,347	0,749
178,300	0,347	0,748
178,350	0,347	0,749
178,400	0,347	0,748
178,450	0,346	0,749
178,500	0,346	0,748
178,550	0,346	0,749
178,600	0,347	0,748
178,650	0,346	0,749
178,700	0,346	0,748
178,750	0,346	0,749
178,800	0,346	0,748
178,850	0,346	0,749
178,900	0,346	0,748
178,950	0,345	0,749
179,000	0,343	0,748
179,050	0,342	0,749
179,100	0,342	0,747
179,150	0,341	0,749
179,200	0,339	0,747
179,250	0,336	0,748
179,300	0,334	0,747
179,350	0,333	0,747
179,400	0,333	0,747
179,450	0,332	0,748
179,500	0,332	0,746
179,550	0,332	0,747
179,600	0,332	0,746
179,650	0,332	0,748
179,700	0,333	0,747
179,750	0,332	0,748
179,800	0,332	0,747
179,850	0,332	0,748
179,900	0,332	0,746
179,950	0,330	0,748
180,000	0,327	0,746
180,050	0,326	0,747
180,100	0,326	0,746
180,150	0,325	0,747
180,200	0,323	0,745
180,250	0,321	0,746
180,300	0,318	0,745
180,350	0,313	0,746
180,400	0,310	0,744
180,450	0,309	0,745
180,500	0,308	0,744
180,550	0,308	0,745
180,600	0,308	0,744
180,650	0,308	0,745
180,700	0,308	0,744
180,750	0,308	0,745
180,800	0,308	0,744
180,850	0,308	0,745
180,900	0,308	0,744
180,950	0,308	0,745
181,000	0,309	0,744
181,050	0,306	0,745
181,100	0,304	0,743
181,150	0,302	0,744
181,200	0,301	0,743
181,250	0,301	0,744
181,300	0,300	0,743
181,350	0,300	0,744
181,400	0,299	0,743
181,450	0,298	0,744
181,500	0,297	0,743
181,550	0,296	0,744
181,600	0,295	0,743
181,650	0,294	0,743
181,700	0,294	0,742
181,750	0,294	0,743
181,800	0,294	0,742
181,850	0,294	0,743
181,900	0,294	0,743
181,950	0,294	0,743
182,000	0,294	0,742
182,050	0,294	0,743
182,100	0,292	0,742
182,150	0,289	0,743
182,200	0,287	0,741
182,250	0,287	0,743
182,300	0,287	0,741
182,350	0,286	0,743
182,400	0,285	0,741
182,450	0,284	0,742
182,500	0,283	0,741
182,550	0,283	0,742
182,600	0,282	0,741
182,650	0,281	0,742
182,700	0,281	0,741
182,750	0,280	0,742
182,800	0,281	0,741
182,850	0,280	0,742
182,900	0,281	0,741
182,950	0,280	0,742
183,000	0,280	0,741
183,050	0,280	0,742
183,100	0,280	0,740
183,150	0,280	0,741
183,200	0,279	0,740
183,250	0,277	0,741
183,300	0,277	0,740
183,350	0,276	0,741
183,400	0,274	0,740
183,450	0,273	0,741
183,500	0,272	0,740
183,550	0,272	0,741
183,600	0,272	0,739
183,650	0,272	0,741
183,700	0,272	0,740
183,750	0,272	0,741
183,800	0,271	0,740
183,850	0,268	0,740
183,900	0,266	0,739
183,950	0,266	0,740
184,000	0,265	0,739
184,050	0,265	0,740
184,100	0,265	0,739
184,150	0,265	0,740
184,200	0,265	0,739
184,250	0,265	0,740
184,300	0,265	0,739
184,350	0,265	0,740
184,400	0,265	0,739
184,450	0,265	0,740
184,500	0,265	0,739
184,550	0,265	0,740
184,600	0,262	0,738
184,650	0,261	0,739
184,700	0,260	0,738
184,750	0,260	0,739
184,800	0,260	0,738
184,850	0,259	0,739
184,900	0,257	0,738
184,950	0,255	0,738
185,000	0,252	0,737
185,050	0,251	0,738
185,100	0,251	0,737
185,150	0,250	0,738
185,200	0,250	0,737
185,250	0,250	0,738
185,300	0,250	0,737
185,350	0,251	0,738
185,400	0,250	0,737
185,450	0,250	0,738
185,500	0,250	0,737
185,550	0,251	0,738
185,600	0,250	0,737
185,650	0,251	0,738
185,700	0,250	0,737
185,750	0,250	0,738
185,800	0,250	0,737
185,850	0,250	0,738
185,900	0,249	0,736
185,950	0,248	0,737
186,000	0,248	0,736
186,050	0,247	0,737
186,100	0,246	0,736
186,150	0,245	0,737
186,200	0,244	0,736
186,250	0,244	0,737
186,300	0,243	0,736
186,350	0,242	0,736
186,400	0,240	0,735
186,450	0,239	0,736
186,500	0,238	0,735
186,550	0,238	0,736
186,600	0,238	0,735
186,650	0,238	0,736
186,700	0,238	0,735
186,750	0,238	0,736
186,800	0,238	0,735
186,850	0,238	0,736
186,900	0,237	0,735
186,950	0,235	0,735
187,000	0,232	0,734
187,050	0,232	0,735
187,100	0,230	0,734
187,150	0,228	0,734
187,200	0,227	0,733
187,250	0,226	0,734
187,300	0,225	0,733
187,350	0,223	0,733
187,400	0,221	0,732
187,450	0,220	0,733
187,500	0,220	0,732
187,550	0,220	0,733
187,600	0,219	0,732
187,650	0,217	0,732
187,700	0,216	0,731
187,750	0,214	0,732
187,800	0,213	0,731
187,850	0,211	0,731
187,900	0,210	0,730
187,950	0,210	0,731
188,000	0,210	0,730
188,050	0,210	0,731
188,100	0,210	0,730
188,150	0,210	0,731
188,200	0,210	0,730
188,250	0,210	0,731
188,300	0,209	0,730
188,350	0,210	0,731
188,400	0,209	0,730
188,450	0,207	0,730
188,500	0,204	0,729
188,550	0,203	0,730
188,600	0,203	0,729
188,650	0,202	0,729
188,700	0,201	0,729
188,750	0,200	0,729
188,800	0,199	0,728
188,850	0,197	0,728
188,900	0,195	0,727
188,950	0,192	0,727
189,000	0,191	0,726
189,050	0,191	0,727
189,100	0,190	0,726
189,150	0,190	0,727
189,200	0,190	0,726
189,250	0,190	0,727
189,300	0,190	0,726
189,350	0,190	0,727
189,400	0,190	0,726
189,450	0,190	0,727
189,500	0,188	0,726
189,550	0,186	0,726
189,600	0,185	0,725
189,650	0,183	0,725
189,700	0,182	0,724
189,750	0,181	0,725
189,800	0,181	0,724
189,850	0,181	0,725
189,900	0,180	0,724
189,950	0,180	0,724
190,000	0,179	0,724
190,050	0,179	0,724
190,100	0,178	0,723
190,150	0,177	0,724
190,200	0,177	0,723
190,250	0,177	0,723
190,300	0,176	0,723
190,350	0,175	0,723
190,400	0,175	0,722
190,450	0,175	0,723
190,500	0,174	0,723
190,550	0,173	0,723
190,600	0,173	0,722
190,650	0,172	0,722
190,700	0,170	0,721
190,750	0,169	0,721
190,800	0,169	0,721
190,850	0,169	0,722
190,900	0,169	0,721
190,950	0,168	0,721
191,000	0,169	0,721
191,050	0,169	0,721
191,100	0,168	0,721
191,150	0,168	0,721
191,200	0,168	0,721
191,250	0,168	0,721
191,300	0,169	0,721
191,350	0,168	0,721
191,400	0,168	0,721
191,450	0,168	0,722
191,500	0,167	0,721
191,550	0,167	0,721
191,600	0,167	0,721
191,650	0,167	0,721
191,700	0,166	0,720
191,750	0,165	0,720
191,800	0,164	0,720
191,850	0,162	0,720
191,900	0,161	0,719
191,950	0,160	0,719
192,000	0,159	0,718
192,050	0,159	0,719
192,100	0,159	0,718
192,150	0,159	0,719
192,200	0,158	0,718
192,250	0,158	0,719
192,300	0,157	0,718
192,350	0,156	0,718
192,400	0,155	0,717
192,450	0,155	0,718
192,500	0,155	0,717
192,550	0,154	0,717
192,600	0,154	0,717
192,650	0,154	0,717
192,700	0,154	0,717
192,750	0,154	0,717
192,800	0,154	0,717
192,850	0,154	0,717
192,900	0,154	0,717
192,950	0,154	0,717
193,000	0,154	0,717
193,050	0,154	0,717
193,100	0,154	0,717
193,150	0,154	0,717
193,200	0,154	0,717
193,250	0,154	0,717
193,300	0,153	0,716
193,350	0,151	0,716
193,400	0,149	0,715
193,450	0,149	0,716
193,500	0,148	0,715
193,550	0,148	0,715
193,600	0,148	0,715
193,650	0,147	0,715
193,700	0,147	0,714
193,750	0,147	0,715
193,800	0,147	0,714
193,850	0,147	0,715
193,900	0,147	0,714
193,950	0,147	0,715
194,000	0,147	0,714
194,050	0,147	0,715
194,100	0,147	0,714
194,150	0,147	0,715
194,200	0,147	0,714
194,250	0,147	0,715
194,300	0,146	0,714
194,350	0,145	0,714
194,400	0,144	0,714
194,450	0,143	0,714
194,500	0,142	0,713
194,550	0,141	0,713
194,600	0,141	0,712
194,650	0,139	0,712
194,700	0,139	0,712
194,750	0,138	0,712
194,800	0,137	0,711
194,850	0,136	0,711
194,900	0,136	0,710
194,950	0,136	0,711
195,000	0,136	0,710
195,050	0,136	0,711
195,100	0,135	0,710
195,150	0,135	0,711
195,200	0,135	0,710
195,250	0,135	0,710
195,300	0,135	0,710
195,350	0,135	0,711
195,400	0,135	0,710
195,450	0,134	0,710
195,500	0,134	0,710
195,550	0,133	0,710
195,600	0,132	0,709
195,650	0,131	0,709
195,700	0,130	0,708
195,750	0,129	0,708
195,800	0,129	0,708
195,850	0,128	0,708
195,900	0,128	0,707
195,950	0,128	0,708
196,000	0,126	0,707
196,050	0,125	0,706
196,100	0,125	0,706
196,150	0,124	0,706
196,200	0,123	0,705
196,250	0,123	0,705
196,300	0,123	0,705
196,350	0,122	0,705
196,400	0,122	0,705
196,450	0,122	0,705
196,500	0,122	0,704
196,550	0,122	0,705
196,600	0,122	0,705
196,650	0,122	0,705
196,700	0,121	0,704
196,750	0,120	0,705
196,800	0,119	0,704
196,850	0,117	0,703
196,900	0,117	0,703
196,950	0,115	0,702
197,000	0,115	0,701
197,050	0,114	0,701
197,100	0,114	0,701
197,150	0,114	0,701
197,200	0,113	0,700
197,250	0,113	0,701
197,300	0,112	0,700
197,350	0,111	0,700
197,400	0,111	0,699
197,450	0,110	0,699
197,500	0,110	0,699
197,550	0,109	0,699
197,600	0,109	0,698
197,650	0,108	0,698
197,700	0,108	0,698
197,750	0,108	0,698
197,800	0,108	0,698
197,850	0,108	0,698
197,900	0,108	0,698
197,950	0,108	0,698
198,000	0,108	0,698
198,050	0,108	0,698
198,100	0,108	0,698
198,150	0,107	0,698
198,200	0,106	0,697
198,250	0,105	0,697
198,300	0,105	0,697
198,350	0,105	0,696
198,400	0,105	0,696
198,450	0,104	0,696
198,500	0,104	0,695
198,550	0,103	0,696
198,600	0,103	0,695
198,650	0,103	0,695
198,700	0,102	0,695
198,750	0,102	0,695
198,800	0,102	0,695
198,850	0,102	0,694
198,900	0,102	0,694
198,950	0,101	0,694
199,000	0,101	0,694
199,050	0,101	0,694
199,100	0,101	0,694
199,150	0,101	0,694
199,200	0,101	0,694
199,250	0,101	0,694
199,300	0,100	0,693
199,350	0,100	0,694
199,400	0,100	0,693
199,450	0,100	0,693
199,500	0,100	0,693
199,550	0,100	0,693
199,600	0,100	0,693
199,650	0,099	0,693
199,700	0,100	0,693
199,750	0,099	0,693
199,800	0,100	0,693
199,850	0,099	0,693
199,900	0,099	0,693
199,950	0,099	0,693
200,000	0,099	0,693
200,050	0,100	0,693
200,100	0,100	0,693
200,150	0,100	0,693
200,200	0,100	0,693
200,250	0,100	0,693
200,300	0,101	0,693
200,350	0,101	0,693
200,400	0,101	0,693
200,450	0,102	0,693
200,500	0,102	0,693
200,550	0,103	0,693
200,600	0,104	0,693
200,650	0,104	0,693
200,700	0,104	0,693
200,750	0,103	0,693
200,800	0,104	0,693
200,850	0,104	0,693
200,900	0,104	0,693
200,950	0,104	0,693
201,000	0,104	0,693
201,050	0,103	0,693
201,100	0,103	0,693
201,150	0,104	0,693
201,200	0,104	0,693
201,250	0,104	0,693
201,300	0,104	0,693
201,350	0,104	0,693
201,400	0,104	0,693
201,450	0,104	0,693
201,500	0,104	0,693
201,550	0,105	0,694
201,600	0,105	0,693
201,650	0,105	0,693
201,700	0,105	0,694
201,750	0,105	0,694
201,800	0,105	0,693
201,850	0,105	0,693
201,900	0,105	0,693
201,950	0,105	0,694
202,000	0,105	0,693
202,050	0,106	0,694
202,100	0,107	0,693
202,150	0,108	0,694
202,200	0,108	0,694
202,250	0,108	0,694
202,300	0,108	0,693
202,350	0,108	0,694
202,400	0,108	0,693
202,450	0,108	0,694
202,500	0,109	0,694
202,550	0,109	0,694
202,600	0,110	0,694
202,650	0,110	0,694
202,700	0,110	0,694
202,750	0,110	0,694
202,800	0,110	0,694
202,850	0,110	0,694
202,900	0,110	0,694
202,950	0,110	0,694
203,000	0,110	0,694
203,050	0,110	0,694
203,100	0,110	0,694
203,150	0,111	0,694
203,200	0,113	0,695
203,250	0,113	0,695
203,300	0,114	0,695
203,350	0,115	0,695
203,400	0,116	0,695
203,450	0,116	0,695
203,500	0,117	0,695
203,550	0,117	0,695
203,600	0,118	0,695
203,650	0,118	0,695
203,700	0,118	0,695
203,750	0,118	0,695
203,800	0,119	0,696
203,850	0,119	0,696
203,900	0,119	0,695
203,950	0,119	0,696
204,000	0,119	0,695
204,050	0,119	0,695
204,100	0,119	0,695
204,150	0,119	0,696
204,200	0,119	0,695
204,250	0,119	0,695
204,300	0,120	0,696
204,350	0,121	0,696
204,400	0,123	0,696
204,450	0,123	0,696
204,500	0,124	0,696
204,550	0,124	0,696
204,600	0,124	0,696
204,650	0,124	0,696
204,700	0,125	0,696
204,750	0,125	0,696
204,800	0,126	0,697
204,850	0,126	0,696
204,900	0,127	0,697
204,950	0,126	0,696
205,000	0,127	0,697
205,050	0,127	0,697
205,100	0,127	0,697
205,150	0,127	0,697
205,200	0,127	0,697
205,250	0,128	0,697
205,300	0,129	0,697
205,350	0,130	0,698
205,400	0,130	0,697
205,450	0,130	0,697
205,500	0,130	0,697
205,550	0,130	0,697
205,600	0,131	0,697
205,650	0,132	0,698
205,700	0,132	0,698
205,750	0,132	0,698
205,800	0,133	0,698
205,850	0,134	0,698
205,900	0,134	0,698
205,950	0,135	0,698
206,000	0,135	0,698
206,050	0,135	0,698
206,100	0,135	0,698
206,150	0,135	0,698
206,200	0,135	0,698
206,250	0,136	0,698
206,300	0,136	0,698
206,350	0,136	0,698
206,400	0,137	0,698
206,450	0,137	0,698
206,500	0,136	0,698
206,550	0,136	0,698
206,600	0,136	0,698
206,650	0,136	0,698
206,700	0,137	0,698
206,750	0,137	0,699
206,800	0,137	0,699
206,850	0,137	0,699
206,900	0,136	0,698
206,950	0,137	0,698
207,000	0,137	0,698
207,050	0,138	0,699
207,100	0,138	0,699
207,150	0,138	0,699
207,200	0,139	0,699
207,250	0,139	0,699
207,300	0,140	0,699
207,350	0,140	0,699
207,400	0,141	0,699
207,450	0,141	0,699
207,500	0,142	0,699
207,550	0,142	0,699
207,600	0,142	0,699
207,650	0,143	0,700
207,700	0,144	0,700
207,750	0,144	0,700
207,800	0,145	0,700
207,850	0,145	0,700
207,900	0,146	0,700
207,950	0,145	0,700
208,000	0,145	0,700
208,050	0,146	0,700
208,100	0,145	0,700
208,150	0,145	0,700
208,200	0,146	0,700
208,250	0,145	0,700
208,300	0,146	0,700
208,350	0,146	0,700
208,400	0,146	0,700
208,450	0,146	0,700
208,500	0,146	0,700
208,550	0,145	0,700
208,600	0,146	0,700
208,650	0,148	0,700
208,700	0,149	0,701
208,750	0,150	0,701
208,800	0,151	0,701
208,850	0,150	0,701
208,900	0,151	0,701
208,950	0,150	0,701
209,000	0,150	0,701
209,050	0,151	0,701
209,100	0,151	0,701
209,150	0,151	0,701
209,200	0,152	0,701
209,250	0,152	0,701
209,300	0,152	0,701
209,350	0,152	0,701
209,400	0,153	0,701
209,450	0,153	0,702
209,500	0,154	0,702
209,550	0,153	0,701
209,600	0,154	0,702
209,650	0,155	0,702
209,700	0,156	0,702
209,750	0,156	0,702
209,800	0,157	0,702
209,850	0,159	0,702
209,900	0,160	0,703
209,950	0,160	0,703
210,000	0,160	0,703
210,050	0,160	0,703
210,100	0,160	0,703
210,150	0,160	0,703
210,200	0,160	0,703
210,250	0,160	0,703
210,300	0,160	0,703
210,350	0,161	0,703
210,400	0,164	0,704
210,450	0,167	0,704
210,500	0,169	0,705
210,550	0,169	0,705
210,600	0,170	0,705
210,650	0,170	0,705
210,700	0,171	0,705
210,750	0,170	0,705
210,800	0,171	0,706
210,850	0,170	0,705
210,900	0,170	0,705
210,950	0,170	0,705
211,000	0,170	0,705
211,050	0,170	0,705
211,100	0,170	0,705
211,150	0,170	0,705
211,200	0,170	0,705
211,250	0,170	0,705
211,300	0,170	0,705
211,350	0,171	0,705
211,400	0,172	0,705
211,450	0,174	0,705
211,500	0,176	0,706
211,550	0,176	0,706
211,600	0,177	0,707
211,650	0,177	0,706
211,700	0,177	0,707
211,750	0,178	0,706
211,800	0,179	0,707
211,850	0,179	0,707
211,900	0,180	0,708
211,950	0,180	0,707
212,000	0,181	0,708
212,050	0,181	0,707
212,100	0,181	0,708
212,150	0,182	0,707
212,200	0,182	0,708
212,250	0,182	0,707
212,300	0,183	0,708
212,350	0,184	0,707
212,400	0,184	0,708
212,450	0,184	0,708
212,500	0,184	0,708
212,550	0,184	0,708
212,600	0,184	0,708
212,650	0,184	0,708
212,700	0,184	0,709
212,750	0,184	0,708
212,800	0,185	0,708
212,850	0,186	0,708
212,900	0,187	0,709
212,950	0,187	0,708
213,000	0,188	0,709
213,050	0,189	0,709
213,100	0,189	0,709
213,150	0,190	0,709
213,200	0,191	0,710
213,250	0,192	0,709
213,300	0,192	0,710
213,350	0,192	0,709
213,400	0,192	0,710
213,450	0,192	0,709
213,500	0,193	0,710
213,550	0,193	0,710
213,600	0,193	0,710
213,650	0,193	0,710
213,700	0,193	0,710
213,750	0,194	0,709
213,800	0,194	0,710
213,850	0,195	0,710
213,900	0,195	0,711
213,950	0,195	0,710
214,000	0,195	0,711
214,050	0,195	0,710
214,100	0,195	0,711
214,150	0,195	0,710
214,200	0,196	0,711
214,250	0,197	0,710
214,300	0,197	0,711
214,350	0,198	0,710
214,400	0,198	0,711
214,450	0,198	0,710
214,500	0,199	0,712
214,550	0,200	0,711
214,600	0,200	0,712
214,650	0,200	0,711
214,700	0,200	0,712
214,750	0,200	0,711
214,800	0,201	0,712
214,850	0,201	0,711
214,900	0,201	0,712
214,950	0,202	0,711
215,000	0,201	0,712
215,050	0,202	0,711
215,100	0,202	0,712
215,150	0,202	0,711
215,200	0,203	0,712
215,250	0,203	0,711
215,300	0,203	0,712
215,350	0,203	0,711
215,400	0,203	0,712
215,450	0,203	0,711
215,500	0,203	0,712
215,550	0,203	0,711
215,600	0,203	0,713
215,650	0,204	0,712
215,700	0,204	0,713
215,750	0,204	0,711
215,800	0,204	0,713
215,850	0,204	0,712
215,900	0,204	0,713
215,950	0,204	0,712
216,000	0,204	0,713
216,050	0,204	0,712
216,100	0,204	0,713
216,150	0,204	0,712
216,200	0,204	0,713
216,250	0,204	0,712
216,300	0,204	0,713
216,350	0,204	0,712
216,400	0,204	0,713
216,450	0,204	0,711
216,500	0,204	0,713
216,550	0,204	0,712
216,600	0,203	0,713
216,650	0,202	0,711
216,700	0,202	0,712
216,750	0,202	0,712
216,800	0,202	0,713
216,850	0,201	0,711
216,900	0,201	0,712
216,950	0,201	0,711
217,000	0,200	0,713
217,050	0,200	0,711
217,100	0,199	0,712
217,150	0,198	0,711
217,200	0,197	0,712
217,250	0,197	0,711
217,300	0,196	0,712
217,350	0,196	0,711
217,400	0,196	0,712
217,450	0,196	0,711
217,500	0,196	0,712
217,550	0,195	0,711
217,600	0,194	0,712
217,650	0,192	0,711
217,700	0,191	0,711
217,750	0,190	0,710
217,800	0,190	0,711
217,850	0,190	0,710
217,900	0,190	0,711
217,950	0,191	0,710
218,000	0,190	0,711
218,050	0,191	0,710
218,100	0,191	0,711
218,150	0,191	0,710
218,200	0,190	0,711
218,250	0,190	0,710
218,300	0,190	0,711
218,350	0,189	0,710
218,400	0,188	0,711
218,450	0,188	0,710
218,500	0,187	0,711
218,550	0,186	0,710
218,600	0,185	0,711
218,650	0,184	0,710
218,700	0,184	0,711
218,750	0,183	0,709
218,800	0,183	0,711
218,850	0,182	0,709
218,900	0,181	0,710
218,950	0,180	0,709
219,000	0,178	0,710
219,050	0,177	0,709
219,100	0,177	0,710
219,150	0,177	0,709
219,200	0,177	0,710
219,250	0,177	0,709
219,300	0,177	0,710
219,350	0,177	0,709
219,400	0,177	0,710
219,450	0,177	0,709
219,500	0,177	0,710
219,550	0,177	0,709
219,600	0,177	0,710
219,650	0,177	0,709
219,700	0,177	0,710
219,750	0,177	0,709
219,800	0,177	0,710
219,850	0,176	0,708
219,900	0,176	0,710
219,950	0,176	0,709
220,000	0,175	0,709
220,050	0,174	0,708
220,100	0,173	0,709
220,150	0,173	0,708
220,200	0,173	0,709
220,250	0,171	0,708
220,300	0,170	0,709
220,350	0,169	0,708
220,400	0,169	0,709
220,450	0,169	0,708
220,500	0,169	0,709
220,550	0,169	0,707
220,600	0,168	0,709
220,650	0,168	0,708
220,700	0,166	0,708
220,750	0,166	0,707
220,800	0,165	0,708
220,850	0,165	0,707
220,900	0,165	0,708
220,950	0,165	0,707
221,000	0,164	0,708
221,050	0,164	0,707
221,100	0,163	0,708
221,150	0,163	0,707
221,200	0,162	0,707
221,250	0,163	0,707
221,300	0,163	0,708
221,350	0,162	0,707
221,400	0,162	0,708
221,450	0,162	0,707
221,500	0,162	0,708
221,550	0,162	0,707
221,600	0,162	0,708
221,650	0,162	0,707
221,700	0,163	0,708
221,750	0,162	0,707
221,800	0,163	0,708
221,850	0,162	0,707
221,900	0,163	0,708
221,950	0,163	0,707
222,000	0,162	0,708
222,050	0,163	0,707
222,100	0,162	0,708
222,150	0,162	0,707
222,200	0,162	0,707
222,250	0,162	0,707
222,300	0,161	0,708
222,350	0,159	0,706
222,400	0,158	0,707
222,450	0,158	0,706
222,500	0,158	0,707
222,550	0,157	0,706
222,600	0,157	0,706
222,650	0,157	0,706
222,700	0,157	0,707
222,750	0,156	0,706
222,800	0,155	0,706
222,850	0,154	0,706
222,900	0,153	0,706
222,950	0,153	0,706
223,000	0,152	0,706
223,050	0,151	0,705
223,100	0,150	0,705
223,150	0,149	0,705
223,200	0,148	0,705
223,250	0,147	0,704
223,300	0,146	0,704
223,350	0,145	0,704
223,400	0,145	0,704
223,450	0,145	0,704
223,500	0,144	0,704
223,550	0,143	0,704
223,600	0,142	0,704
223,650	0,142	0,704
223,700	0,141	0,704
223,750	0,140	0,704
223,800	0,139	0,703
223,850	0,138	0,703
223,900	0,137	0,703
223,950	0,137	0,703
224,000	0,137	0,703
224,050	0,137	0,703
224,100	0,136	0,703
224,150	0,135	0,702
224,200	0,134	0,702
224,250	0,135	0,702
224,300	0,134	0,702
224,350	0,134	0,702
224,400	0,134	0,702
224,450	0,134	0,702
224,500	0,134	0,702
224,550	0,134	0,702
224,600	0,134	0,702
224,650	0,134	0,702
224,700	0,134	0,702
224,750	0,134	0,702
224,800	0,134	0,702
224,850	0,134	0,702
224,900	0,134	0,702
224,950	0,133	0,702
225,000	0,133	0,702
225,050	0,133	0,702
225,100	0,133	0,702
225,150	0,133	0,702
225,200	0,133	0,702
225,250	0,132	0,702
225,300	0,132	0,702
225,350	0,132	0,702
225,400	0,131	0,702
225,450	0,131	0,702
225,500	0,131	0,701
225,550	0,130	0,701
225,600	0,130	0,701
225,650	0,129	0,701
225,700	0,128	0,701
225,750	0,128	0,701
225,800	0,127	0,701
225,850	0,127	0,701
225,900	0,127	0,700
225,950	0,127	0,701
226,000	0,126	0,700
226,050	0,125	0,700
226,100	0,125	0,700
226,150	0,125	0,701
226,200	0,125	0,700
226,250	0,125	0,700
226,300	0,125	0,700
226,350	0,125	0,701
226,400	0,125	0,700
226,450	0,125	0,701
226,500	0,125	0,700
226,550	0,125	0,701
226,600	0,125	0,700
226,650	0,125	0,700
226,700	0,125	0,700
226,750	0,125	0,700
226,800	0,125	0,700
226,850	0,125	0,700
226,900	0,125	0,700
226,950	0,125	0,700
227,000	0,125	0,700
227,050	0,125	0,701
227,100	0,125	0,700
227,150	0,124	0,700
227,200	0,123	0,700
227,250	0,122	0,700
227,300	0,122	0,699
227,350	0,122	0,700
227,400	0,121	0,699
227,450	0,121	0,700
227,500	0,121	0,699
227,550	0,120	0,700
227,600	0,119	0,699
227,650	0,117	0,699
227,700	0,116	0,698
227,750	0,115	0,698
227,800	0,115	0,697
227,850	0,114	0,698
227,900	0,113	0,697
227,950	0,112	0,697
228,000	0,111	0,696
228,050	0,111	0,697
228,100	0,111	0,696
228,150	0,110	0,697
228,200	0,110	0,696
228,250	0,110	0,697
228,300	0,109	0,696
228,350	0,108	0,697
228,400	0,107	0,695
228,450	0,106	0,696
228,500	0,106	0,695
228,550	0,106	0,696
228,600	0,105	0,695
228,650	0,105	0,695
228,700	0,105	0,695
228,750	0,105	0,695
228,800	0,105	0,695
228,850	0,105	0,695
228,900	0,105	0,694
228,950	0,105	0,695
229,000	0,105	0,694
229,050	0,105	0,695
229,100	0,105	0,694
229,150	0,105	0,695
229,200	0,105	0,695
229,250	0,105	0,696
229,300	0,105	0,694
229,350	0,105	0,695
229,400	0,105	0,694
229,450	0,105	0,695
229,500	0,104	0,694
229,550	0,103	0,695
229,600	0,103	0,694
229,650	0,102	0,695
229,700	0,102	0,693
229,750	0,101	0,694
229,800	0,100	0,693
229,850	0,099	0,694
229,900	0,098	0,692
229,950	0,097	0,693
230,000	0,096	0,691
230,050	0,095	0,692
230,100	0,094	0,690
230,150	0,092	0,690
230,200	0,092	0,688
230,250	0,091	0,689
230,300	0,090	0,687
230,350	0,090	0,688
230,400	0,089	0,686
230,450	0,088	0,687
230,500	0,088	0,686
230,550	0,087	0,686
230,600	0,087	0,685
230,650	0,087	0,686
230,700	0,087	0,684
230,750	0,087	0,686
230,800	0,086	0,684
230,850	0,086	0,685
230,900	0,086	0,684
230,950	0,085	0,685
231,000	0,084	0,683
231,050	0,083	0,684
231,100	0,083	0,682
231,150	0,082	0,682
231,200	0,081	0,681
231,250	0,081	0,681
231,300	0,080	0,680
231,350	0,080	0,681
231,400	0,080	0,679
231,450	0,080	0,680
231,500	0,080	0,679
231,550	0,079	0,680
231,600	0,080	0,679
231,650	0,079	0,680
231,700	0,079	0,679
231,750	0,079	0,680
231,800	0,079	0,678
231,850	0,078	0,680
231,900	0,078	0,678
231,950	0,078	0,679
232,000	0,077	0,678
232,050	0,077	0,678
232,100	0,076	0,677
232,150	0,076	0,677
232,200	0,075	0,676
232,250	0,074	0,677
232,300	0,074	0,675
232,350	0,073	0,675
232,400	0,072	0,674
232,450	0,072	0,674
232,500	0,071	0,672
232,550	0,070	0,672
232,600	0,069	0,671
232,650	0,068	0,671
232,700	0,068	0,669
232,750	0,068	0,670
232,800	0,067	0,668
232,850	0,067	0,669
232,900	0,066	0,668
232,950	0,066	0,669
233,000	0,066	0,667
233,050	0,065	0,668
233,100	0,064	0,666
233,150	0,064	0,667
233,200	0,063	0,665
233,250	0,063	0,665
233,300	0,063	0,664
233,350	0,062	0,665
233,400	0,062	0,663
233,450	0,062	0,664
233,500	0,062	0,663
233,550	0,061	0,663
233,600	0,060	0,662
233,650	0,059	0,662
233,700	0,058	0,660
233,750	0,058	0,660
233,800	0,057	0,659
233,850	0,057	0,659
233,900	0,056	0,658
233,950	0,056	0,659
234,000	0,056	0,657
234,050	0,056	0,658
234,100	0,055	0,656
234,150	0,056	0,657
234,200	0,055	0,656
234,250	0,055	0,657
234,300	0,055	0,656
234,350	0,055	0,656
234,400	0,055	0,655
234,450	0,054	0,656
234,500	0,053	0,654
234,550	0,052	0,655
234,600	0,051	0,652
234,650	0,049	0,652
234,700	0,048	0,649
234,750	0,047	0,649
234,800	0,046	0,646
234,850	0,046	0,647
234,900	0,045	0,644
234,950	0,044	0,645
235,000	0,044	0,643
235,050	0,043	0,643
235,100	0,043	0,642
235,150	0,043	0,642
235,200	0,042	0,641
235,250	0,042	0,641
235,300	0,042	0,640
235,350	0,042	0,640
235,400	0,041	0,639
235,450	0,041	0,639
235,500	0,040	0,638
235,550	0,040	0,638
235,600	0,039	0,636
235,650	0,039	0,637
235,700	0,039	0,635
235,750	0,038	0,635
235,800	0,038	0,634
235,850	0,037	0,634
235,900	0,037	0,633
235,950	0,037	0,634
236,000	0,036	0,632
236,050	0,036	0,632
236,100	0,036	0,631
236,150	0,035	0,631
236,200	0,035	0,631
236,250	0,035	0,631
236,300	0,034	0,629
236,350	0,034	0,630
236,400	0,034	0,629
236,450	0,034	0,629
236,500	0,033	0,628
236,550	0,033	0,628
236,600	0,033	0,627
236,650	0,033	0,627
236,700	0,033	0,626
236,750	0,032	0,627
236,800	0,032	0,625
236,850	0,031	0,626
236,900	0,031	0,624
236,950	0,030	0,624
237,000	0,030	0,623
237,050	0,030	0,623
237,100	0,030	0,622
237,150	0,028	0,622
237,200	0,027	0,620
237,250	0,027	0,619
237,300	0,026	0,617
237,350	0,026	0,617
237,400	0,025	0,615
237,450	0,025	0,616
237,500	0,025	0,614
237,550	0,024	0,614
237,600	0,024	0,613
237,650	0,024	0,613
237,700	0,024	0,612
237,750	0,023	0,612
237,800	0,022	0,610
237,850	0,021	0,609
237,900	0,020	0,607
237,950	0,019	0,605
238,000	0,018	0,603
238,050	0,017	0,602
238,100	0,016	0,600
238,150	0,016	0,599
238,200	0,015	0,597
238,250	0,015	0,596
238,300	0,014	0,594
238,350	0,013	0,593
238,400	0,013	0,591
238,450	0,012	0,590
238,500	0,011	0,588
238,550	0,011	0,587
238,600	0,010	0,585
238,650	0,010	0,584
238,700	0,009	0,582
238,750	0,008	0,581
238,800	0,008	0,580
238,850	0,008	0,579
238,900	0,007	0,578
238,950	0,007	0,577
239,000	0,007	0,576
239,050	0,007	0,575
239,100	0,007	0,574
239,150	0,006	0,574
239,200	0,006	0,573
239,250	0,005	0,572
239,300	0,005	0,571
239,350	0,005	0,570
239,400	0,005	0,569
239,450	0,005	0,569
239,500	0,004	0,567
239,550	0,004	0,567
239,600	0,004	0,566
239,650	0,004	0,565
239,700	0,004	0,565
239,750	0,004	0,565
239,800	0,003	0,564
239,850	0,003	0,563
239,900	0,003	0,563
239,950	0,003	0,562
240,000	0,003	0,562
240,050	0,002	0,561
240,100	0,002	0,560
240,150	0,001	0,559
240,200	0,001	0,557
240,250	9,801E-4	0,557
240,300	0,001	0,556
240,350	0,001	0,556
240,400	7,640E-4	0,555
240,450	0,001	0,555
240,500	0,001	0,554
240,550	8,971E-4	0,554
240,600	0,001	0,554
240,650	7,445E-4	0,554
240,700	8,239E-4	0,554
240,750	4,967E-4	0,553
240,800	-4,164E-4	0,552
240,850	-8,644E-4	0,551
240,900	-0,001	0,550
240,950	-0,002	0,549
241,000	-0,002	0,548
241,050	-0,002	0,547
241,100	-0,002	0,546
241,150	-0,002	0,545
241,200	-0,002	0,544
241,250	-0,003	0,543
241,300	-0,003	0,542
241,350	-0,003	0,542
241,400	-0,003	0,541
241,450	-0,003	0,540
241,500	-0,004	0,539
241,550	-0,004	0,539
241,600	-0,004	0,538
241,650	-0,004	0,537
241,700	-0,004	0,537
241,750	-0,005	0,536
241,800	-0,005	0,535
241,850	-0,005	0,535
241,900	-0,005	0,534
241,950	-0,005	0,533
242,000	-0,006	0,532
242,050	-0,005	0,531
242,100	-0,006	0,531
242,150	-0,006	0,530
242,200	-0,006	0,529
242,250	-0,006	0,528
242,300	-0,006	0,528
242,350	-0,006	0,527
242,400	-0,006	0,526
242,450	-0,007	0,525
242,500	-0,007	0,525
242,550	-0,007	0,524
242,600	-0,007	0,524
242,650	-0,007	0,523
242,700	-0,008	0,522
242,750	-0,008	0,521
242,800	-0,008	0,521
242,850	-0,008	0,520
242,900	-0,008	0,520
242,950	-0,008	0,519
243,000	-0,008	0,518
243,050	-0,008	0,517
243,100	-0,009	0,516
243,150	-0,009	0,515
243,200	-0,009	0,515
243,250	-0,009	0,513
243,300	-0,009	0,513
243,350	-0,010	0,512
243,400	-0,010	0,511
243,450	-0,010	0,510
243,500	-0,010	0,509
243,550	-0,010	0,508
243,600	-0,010	0,508
243,650	-0,011	0,506
243,700	-0,011	0,505
243,750	-0,011	0,504
243,800	-0,011	0,504
243,850	-0,011	0,503
243,900	-0,011	0,502
243,950	-0,011	0,501
244,000	-0,012	0,500
244,050	-0,012	0,498
244,100	-0,012	0,498
244,150	-0,012	0,497
244,200	-0,012	0,496
244,250	-0,013	0,494
244,300	-0,013	0,493
244,350	-0,013	0,492
244,400	-0,013	0,492
244,450	-0,013	0,489
244,500	-0,014	0,489
244,550	-0,014	0,487
244,600	-0,014	0,486
244,650	-0,014	0,484
244,700	-0,014	0,483
244,750	-0,015	0,481
244,800	-0,015	0,480
244,850	-0,015	0,478
244,900	-0,015	0,478
244,950	-0,015	0,475
245,000	-0,015	0,474
245,050	-0,015	0,472
245,100	-0,016	0,471
245,150	-0,016	0,468
245,200	-0,016	0,467
245,250	-0,016	0,466
245,300	-0,016	0,465
245,350	-0,016	0,462
245,400	-0,016	0,462
245,450	-0,017	0,459
245,500	-0,017	0,458
245,550	-0,017	0,456
245,600	-0,017	0,456
245,650	-0,017	0,453
245,700	-0,017	0,453
245,750	-0,017	0,450
245,800	-0,017	0,450
245,850	-0,017	0,448
245,900	-0,017	0,447
245,950	-0,017	0,444
246,000	-0,017	0,444
246,050	-0,018	0,441
246,100	-0,018	0,441
246,150	-0,018	0,439
246,200	-0,018	0,438
246,250	-0,018	0,435
246,300	-0,018	0,434
246,350	-0,018	0,432
246,400	-0,018	0,431
246,450	-0,019	0,428
246,500	-0,019	0,427
246,550	-0,019	0,425
246,600	-0,019	0,425
246,650	-0,019	0,422
246,700	-0,019	0,421
246,750	-0,019	0,418
246,800	-0,019	0,417
246,850	-0,019	0,415
246,900	-0,019	0,414
246,950	-0,019	0,412
247,000	-0,020	0,411
247,050	-0,020	0,408
247,100	-0,020	0,407
247,150	-0,020	0,404
247,200	-0,020	0,403
247,250	-0,020	0,400
247,300	-0,020	0,400
247,350	-0,020	0,397
247,400	-0,020	0,396
247,450	-0,020	0,394
247,500	-0,021	0,393
247,550	-0,021	0,390
247,600	-0,020	0,390
247,650	-0,021	0,387
247,700	-0,021	0,386
247,750	-0,021	0,383
247,800	-0,021	0,383
247,850	-0,021	0,380
247,900	-0,021	0,380
247,950	-0,021	0,377
248,000	-0,021	0,376
248,050	-0,021	0,374
248,100	-0,021	0,373
248,150	-0,021	0,371
248,200	-0,022	0,370
248,250	-0,022	0,367
248,300	-0,021	0,367
248,350	-0,022	0,364
248,400	-0,022	0,364
248,450	-0,022	0,361
248,500	-0,022	0,361
248,550	-0,022	0,358
248,600	-0,022	0,357
248,650	-0,022	0,354
248,700	-0,022	0,353
248,750	-0,023	0,350
248,800	-0,023	0,350
248,850	-0,023	0,347
248,900	-0,023	0,346
248,950	-0,023	0,343
249,000	-0,023	0,342
249,050	-0,023	0,339
249,100	-0,023	0,338
249,150	-0,023	0,335
249,200	-0,023	0,334
249,250	-0,024	0,331
249,300	-0,024	0,329
249,350	-0,024	0,327
249,400	-0,024	0,325
249,450	-0,024	0,323
249,500	-0,024	0,322
249,550	-0,024	0,318
249,600	-0,024	0,318
249,650	-0,024	0,315
249,700	-0,024	0,314
249,750	-0,025	0,311
249,800	-0,025	0,311
249,850	-0,024	0,308
249,900	-0,025	0,307
249,950	-0,025	0,303
250,000	-0,025	0,302
250,050	-0,025	0,299
250,100	-0,026	0,298
250,150	-0,026	0,295
250,200	-0,026	0,294
250,250	-0,026	0,290
250,300	-0,026	0,289
250,350	-0,027	0,285
250,400	-0,027	0,284
250,450	-0,027	0,280
250,500	-0,027	0,279
250,550	-0,028	0,275
250,600	-0,028	0,274
250,650	-0,028	0,270
250,700	-0,028	0,269
250,750	-0,029	0,264
250,800	-0,029	0,263
250,850	-0,029	0,259
250,900	-0,029	0,258
250,950	-0,029	0,254
251,000	-0,029	0,252
251,050	-0,030	0,249
251,100	-0,030	0,247
251,150	-0,030	0,243
251,200	-0,030	0,241
251,250	-0,031	0,238
251,300	-0,031	0,236
251,350	-0,031	0,232
251,400	-0,031	0,231
251,450	-0,032	0,226
251,500	-0,032	0,225
251,550	-0,032	0,221
251,600	-0,032	0,219
251,650	-0,033	0,215
251,700	-0,033	0,214
251,750	-0,033	0,210
251,800	-0,033	0,208
251,850	-0,033	0,205
251,900	-0,034	0,203
251,950	-0,034	0,200
252,000	-0,034	0,198
252,050	-0,034	0,194
252,100	-0,035	0,193
252,150	-0,035	0,189
252,200	-0,035	0,188
252,250	-0,035	0,184
252,300	-0,036	0,182
252,350	-0,036	0,179
252,400	-0,036	0,178
252,450	-0,037	0,174
252,500	-0,037	0,172
252,550	-0,037	0,169
252,600	-0,037	0,168
252,650	-0,038	0,164
252,700	-0,038	0,163
252,750	-0,038	0,159
252,800	-0,038	0,158
252,850	-0,039	0,155
252,900	-0,039	0,154
252,950	-0,039	0,150
253,000	-0,040	0,149
253,050	-0,040	0,146
253,100	-0,040	0,145
253,150	-0,040	0,142
253,200	-0,041	0,140
253,250	-0,041	0,137
253,300	-0,041	0,136
253,350	-0,042	0,133
253,400	-0,042	0,132
253,450	-0,042	0,129
253,500	-0,043	0,127
253,550	-0,043	0,125
253,600	-0,043	0,124
253,650	-0,044	0,121
253,700	-0,044	0,120
253,750	-0,044	0,117
253,800	-0,045	0,116
253,850	-0,045	0,113
253,900	-0,045	0,112
253,950	-0,045	0,109
254,000	-0,046	0,108
254,050	-0,046	0,106
254,100	-0,047	0,104
254,150	-0,047	0,102
254,200	-0,047	0,101
254,250	-0,047	0,099
254,300	-0,047	0,098
254,350	-0,047	0,096
254,400	-0,048	0,095
254,450	-0,048	0,093
254,500	-0,049	0,092
254,550	-0,049	0,090
254,600	-0,049	0,089
254,650	-0,049	0,088
254,700	-0,050	0,087
254,750	-0,050	0,084
254,800	-0,050	0,084
254,850	-0,050	0,082
254,900	-0,051	0,081
254,950	-0,051	0,079
255,000	-0,051	0,078
255,050	-0,052	0,077
255,100	-0,052	0,076
255,150	-0,053	0,074
255,200	-0,053	0,073
255,250	-0,053	0,071
255,300	-0,054	0,070
255,350	-0,054	0,069
255,400	-0,054	0,068
255,450	-0,055	0,066
255,500	-0,055	0,065
255,550	-0,055	0,063
255,600	-0,055	0,063
255,650	-0,055	0,061
255,700	-0,056	0,061
255,750	-0,056	0,059
255,800	-0,056	0,059
255,850	-0,057	0,057
255,900	-0,056	0,057
255,950	-0,057	0,056
256,000	-0,057	0,055
256,050	-0,057	0,054
256,100	-0,057	0,054
256,150	-0,057	0,053
256,200	-0,058	0,052
256,250	-0,058	0,051
256,300	-0,058	0,050
256,350	-0,058	0,050
256,400	-0,058	0,050
256,450	-0,058	0,049
256,500	-0,059	0,048
256,550	-0,059	0,048
256,600	-0,059	0,047
256,650	-0,059	0,047
256,700	-0,059	0,047
256,750	-0,059	0,046
256,800	-0,059	0,046
256,850	-0,060	0,045
256,900	-0,060	0,045
256,950	-0,060	0,044
257,000	-0,059	0,044
257,050	-0,060	0,044
257,100	-0,060	0,044
257,150	-0,060	0,043
257,200	-0,060	0,043
257,250	-0,060	0,043
257,300	-0,060	0,043
257,350	-0,060	0,042
257,400	-0,060	0,042
257,450	-0,060	0,041
257,500	-0,060	0,041
257,550	-0,061	0,041
257,600	-0,061	0,041
257,650	-0,061	0,040
257,700	-0,061	0,039
257,750	-0,062	0,039
257,800	-0,062	0,038
257,850	-0,062	0,038
257,900	-0,062	0,037
257,950	-0,063	0,036
258,000	-0,063	0,035
258,050	-0,063	0,035
258,100	-0,063	0,034
258,150	-0,064	0,033
258,200	-0,064	0,032
258,250	-0,065	0,031
258,300	-0,065	0,030
258,350	-0,065	0,029
258,400	-0,065	0,028
258,450	-0,066	0,028
258,500	-0,066	0,026
258,550	-0,066	0,025
258,600	-0,067	0,024
258,650	-0,068	0,023
258,700	-0,068	0,022
258,750	-0,068	0,021
258,800	-0,069	0,019
258,850	-0,070	0,018
258,900	-0,070	0,017
258,950	-0,070	0,016
259,000	-0,071	0,014
259,050	-0,072	0,013
259,100	-0,072	0,011
259,150	-0,073	0,010
259,200	-0,074	0,008
259,250	-0,074	0,007
259,300	-0,074	0,006
259,350	-0,075	0,005
259,400	-0,075	0,003
259,450	-0,076	0,003
259,500	-0,076	0,001
259,550	-0,076	7,399E-4
259,600	-0,077	-6,090E-4
259,650	-0,078	-0,001
259,700	-0,078	-0,003
259,750	-0,079	-0,004
259,800	-0,080	-0,007
259,850	-0,080	-0,008
259,900	-0,081	-0,010
259,950	-0,082	-0,010
260,000	-0,082	-0,012
260,050	-0,083	-0,013
260,100	-0,084	-0,015
260,150	-0,086	-0,017
260,200	-0,086	-0,019
260,250	-0,087	-0,020
260,300	-0,088	-0,022
260,350	-0,088	-0,023
260,400	-0,088	-0,025
260,450	-0,089	-0,025
260,500	-0,090	-0,027
260,550	-0,091	-0,028
260,600	-0,091	-0,030
260,650	-0,092	-0,031
260,700	-0,093	-0,032
260,750	-0,093	-0,033
260,800	-0,094	-0,035
260,850	-0,094	-0,035
260,900	-0,095	-0,036
260,950	-0,095	-0,036
261,000	-0,095	-0,038
261,050	-0,096	-0,038
261,100	-0,097	-0,040
261,150	-0,098	-0,040
261,200	-0,099	-0,042
261,250	-0,099	-0,043
261,300	-0,100	-0,045
261,350	-0,101	-0,045
261,400	-0,101	-0,046
261,450	-0,102	-0,047
261,500	-0,102	-0,048
261,550	-0,103	-0,049
261,600	-0,103	-0,050
261,650	-0,104	-0,050
261,700	-0,104	-0,051
261,750	-0,104	-0,051
261,800	-0,105	-0,052
261,850	-0,105	-0,052
261,900	-0,106	-0,054
261,950	-0,106	-0,054
262,000	-0,107	-0,055
262,050	-0,107	-0,054
262,100	-0,107	-0,056
262,150	-0,107	-0,055
262,200	-0,107	-0,056
262,250	-0,108	-0,056
262,300	-0,108	-0,057
262,350	-0,108	-0,056
262,400	-0,108	-0,057
262,450	-0,108	-0,057
262,500	-0,108	-0,058
262,550	-0,109	-0,057
262,600	-0,109	-0,059
262,650	-0,110	-0,058
262,700	-0,110	-0,060
262,750	-0,111	-0,060
262,800	-0,111	-0,061
262,850	-0,111	-0,061
262,900	-0,112	-0,062
262,950	-0,112	-0,062
263,000	-0,112	-0,063
263,050	-0,113	-0,063
263,100	-0,114	-0,064
263,150	-0,114	-0,064
263,200	-0,115	-0,065
263,250	-0,115	-0,065
263,300	-0,115	-0,067
263,350	-0,116	-0,066
263,400	-0,116	-0,067
263,450	-0,116	-0,067
263,500	-0,116	-0,068
263,550	-0,116	-0,067
263,600	-0,117	-0,068
263,650	-0,116	-0,067
263,700	-0,117	-0,069
263,750	-0,117	-0,068
263,800	-0,118	-0,070
263,850	-0,118	-0,069
263,900	-0,118	-0,070
263,950	-0,119	-0,070
264,000	-0,120	-0,071
264,050	-0,120	-0,071
264,100	-0,121	-0,073
264,150	-0,121	-0,072
264,200	-0,122	-0,074
264,250	-0,122	-0,073
264,300	-0,122	-0,075
264,350	-0,123	-0,074
264,400	-0,123	-0,076
264,450	-0,123	-0,075
264,500	-0,124	-0,077
264,550	-0,125	-0,076
264,600	-0,125	-0,077
264,650	-0,125	-0,077
264,700	-0,126	-0,078
264,750	-0,126	-0,078
264,800	-0,126	-0,079
264,850	-0,126	-0,078
264,900	-0,127	-0,080
264,950	-0,127	-0,079
265,000	-0,127	-0,080
265,050	-0,128	-0,079
265,100	-0,128	-0,081
265,150	-0,128	-0,080
265,200	-0,129	-0,082
265,250	-0,129	-0,081
265,300	-0,129	-0,082
265,350	-0,130	-0,082
265,400	-0,130	-0,083
265,450	-0,130	-0,082
265,500	-0,131	-0,083
265,550	-0,131	-0,083
265,600	-0,131	-0,084
265,650	-0,132	-0,084
265,700	-0,132	-0,085
265,750	-0,132	-0,084
265,800	-0,132	-0,085
265,850	-0,133	-0,084
265,900	-0,133	-0,086
265,950	-0,134	-0,085
266,000	-0,134	-0,087
266,050	-0,134	-0,086
266,100	-0,134	-0,087
266,150	-0,135	-0,087
266,200	-0,135	-0,088
266,250	-0,135	-0,087
266,300	-0,135	-0,088
266,350	-0,135	-0,087
266,400	-0,135	-0,088
266,450	-0,135	-0,087
266,500	-0,136	-0,089
266,550	-0,136	-0,088
266,600	-0,136	-0,089
266,650	-0,136	-0,088
266,700	-0,136	-0,089
266,750	-0,136	-0,088
266,800	-0,136	-0,089
266,850	-0,137	-0,088
266,900	-0,137	-0,090
266,950	-0,137	-0,089
267,000	-0,137	-0,090
267,050	-0,138	-0,089
267,100	-0,138	-0,091
267,150	-0,139	-0,090
267,200	-0,139	-0,091
267,250	-0,139	-0,090
267,300	-0,139	-0,092
267,350	-0,140	-0,091
267,400	-0,140	-0,093
267,450	-0,141	-0,092
267,500	-0,141	-0,093
267,550	-0,142	-0,093
267,600	-0,143	-0,094
267,650	-0,143	-0,094
267,700	-0,143	-0,095
267,750	-0,144	-0,095
267,800	-0,145	-0,096
267,850	-0,145	-0,095
267,900	-0,145	-0,097
267,950	-0,146	-0,096
268,000	-0,147	-0,098
268,050	-0,147	-0,097
268,100	-0,147	-0,098
268,150	-0,148	-0,098
268,200	-0,148	-0,099
268,250	-0,149	-0,098
268,300	-0,149	-0,099
268,350	-0,149	-0,099
268,400	-0,149	-0,100
268,450	-0,149	-0,099
268,500	-0,150	-0,101
268,550	-0,150	-0,100
268,600	-0,151	-0,101
268,650	-0,151	-0,100
268,700	-0,152	-0,102
268,750	-0,152	-0,101
268,800	-0,153	-0,102
268,850	-0,153	-0,101
268,900	-0,154	-0,103
268,950	-0,154	-0,103
269,000	-0,155	-0,104
269,050	-0,155	-0,103
269,100	-0,156	-0,105
269,150	-0,156	-0,104
269,200	-0,156	-0,105
269,250	-0,156	-0,104
269,300	-0,157	-0,106
269,350	-0,157	-0,105
269,400	-0,157	-0,105
269,450	-0,157	-0,105
269,500	-0,157	-0,106
269,550	-0,157	-0,105
269,600	-0,157	-0,106
269,650	-0,157	-0,105
269,700	-0,157	-0,106
269,750	-0,157	-0,105
269,800	-0,157	-0,106
269,850	-0,157	-0,105
269,900	-0,158	-0,106
269,950	-0,159	-0,106
270,000	-0,160	-0,107
270,050	-0,160	-0,107
270,100	-0,160	-0,108
270,150	-0,161	-0,107
270,200	-0,161	-0,108
270,250	-0,162	-0,108
270,300	-0,163	-0,109
270,350	-0,164	-0,109
270,400	-0,165	-0,110
270,450	-0,166	-0,110
270,500	-0,167	-0,112
270,550	-0,167	-0,112
270,600	-0,168	-0,113
270,650	-0,168	-0,112
270,700	-0,168	-0,113
270,750	-0,169	-0,113
270,800	-0,169	-0,113
270,850	-0,169	-0,113
270,900	-0,169	-0,114
270,950	-0,169	-0,113
271,000	-0,169	-0,114
271,050	-0,169	-0,113
271,100	-0,169	-0,113
271,150	-0,169	-0,113
271,200	-0,169	-0,114
271,250	-0,169	-0,113
271,300	-0,169	-0,114
271,350	-0,169	-0,113
271,400	-0,169	-0,114
271,450	-0,169	-0,113
271,500	-0,169	-0,114
271,550	-0,169	-0,113
271,600	-0,169	-0,114
271,650	-0,169	-0,113
271,700	-0,169	-0,114
271,750	-0,169	-0,113
271,800	-0,169	-0,114
271,850	-0,169	-0,113
271,900	-0,169	-0,114
271,950	-0,169	-0,113
272,000	-0,169	-0,114
272,050	-0,169	-0,114
272,100	-0,169	-0,114
272,150	-0,169	-0,113
272,200	-0,169	-0,114
272,250	-0,169	-0,113
272,300	-0,169	-0,114
272,350	-0,169	-0,114
272,400	-0,169	-0,114
272,450	-0,169	-0,113
272,500	-0,170	-0,114
272,550	-0,169	-0,113
272,600	-0,170	-0,114
272,650	-0,170	-0,113
272,700	-0,170	-0,114
272,750	-0,170	-0,114
272,800	-0,171	-0,114
272,850	-0,171	-0,114
272,900	-0,171	-0,114
272,950	-0,172	-0,115
273,000	-0,173	-0,115
273,050	-0,173	-0,115
273,100	-0,174	-0,116
273,150	-0,174	-0,116
273,200	-0,175	-0,117
273,250	-0,176	-0,117
273,300	-0,176	-0,117
273,350	-0,177	-0,118
273,400	-0,176	-0,117
273,450	-0,177	-0,118
273,500	-0,178	-0,118
273,550	-0,178	-0,118
273,600	-0,178	-0,118
273,650	-0,179	-0,119
273,700	-0,179	-0,119
273,750	-0,179	-0,119
273,800	-0,180	-0,119
273,850	-0,180	-0,119
273,900	-0,180	-0,120
273,950	-0,181	-0,120
274,000	-0,181	-0,120
274,050	-0,182	-0,121
274,100	-0,182	-0,121
274,150	-0,183	-0,121
274,200	-0,184	-0,122
274,250	-0,184	-0,122
274,300	-0,185	-0,122
274,350	-0,185	-0,123
274,400	-0,185	-0,123
274,450	-0,186	-0,123
274,500	-0,187	-0,123
274,550	-0,187	-0,123
274,600	-0,187	-0,123
274,650	-0,188	-0,124
274,700	-0,188	-0,124
274,750	-0,189	-0,124
274,800	-0,189	-0,124
274,850	-0,190	-0,125
274,900	-0,190	-0,125
274,950	-0,191	-0,125
275,000	-0,192	-0,125
275,050	-0,193	-0,126
275,100	-0,193	-0,126
275,150	-0,194	-0,127
275,200	-0,194	-0,127
275,250	-0,194	-0,127
275,300	-0,195	-0,127
275,350	-0,195	-0,127
275,400	-0,195	-0,127
275,450	-0,195	-0,128
275,500	-0,196	-0,128
275,550	-0,196	-0,128
275,600	-0,196	-0,128
275,650	-0,196	-0,128
275,700	-0,197	-0,128
275,750	-0,197	-0,129
275,800	-0,198	-0,129
275,850	-0,198	-0,129
275,900	-0,198	-0,129
275,950	-0,198	-0,129
276,000	-0,199	-0,129
276,050	-0,200	-0,130
276,100	-0,200	-0,129
276,150	-0,200	-0,130
276,200	-0,201	-0,130
276,250	-0,201	-0,131
276,300	-0,201	-0,130
276,350	-0,202	-0,131
276,400	-0,202	-0,131
276,450	-0,203	-0,131
276,500	-0,203	-0,131
276,550	-0,203	-0,131
276,600	-0,204	-0,131
276,650	-0,204	-0,132
276,700	-0,204	-0,131
276,750	-0,204	-0,132
276,800	-0,205	-0,132
276,850	-0,205	-0,132
276,900	-0,206	-0,132
276,950	-0,206	-0,133
277,000	-0,207	-0,133
277,050	-0,208	-0,133
277,100	-0,208	-0,133
277,150	-0,208	-0,134
277,200	-0,208	-0,133
277,250	-0,209	-0,134
277,300	-0,210	-0,134
277,350	-0,210	-0,134
277,400	-0,211	-0,134
277,450	-0,211	-0,135
277,500	-0,211	-0,134
277,550	-0,211	-0,135
277,600	-0,212	-0,134
277,650	-0,213	-0,136
277,700	-0,213	-0,135
277,750	-0,214	-0,136
277,800	-0,214	-0,135
277,850	-0,215	-0,137
277,900	-0,215	-0,136
277,950	-0,215	-0,136
278,000	-0,215	-0,136
278,050	-0,215	-0,137
278,100	-0,215	-0,136
278,150	-0,215	-0,136
278,200	-0,215	-0,136
278,250	-0,216	-0,137
278,300	-0,216	-0,136
278,350	-0,217	-0,137
278,400	-0,218	-0,137
278,450	-0,218	-0,138
278,500	-0,219	-0,137
278,550	-0,219	-0,138
278,600	-0,219	-0,138
278,650	-0,219	-0,138
278,700	-0,219	-0,137
278,750	-0,220	-0,138
278,800	-0,220	-0,138
278,850	-0,221	-0,139
278,900	-0,221	-0,138
278,950	-0,221	-0,139
279,000	-0,221	-0,138
279,050	-0,221	-0,139
279,100	-0,222	-0,138
279,150	-0,222	-0,139
279,200	-0,222	-0,139
279,250	-0,223	-0,140
279,300	-0,223	-0,139
279,350	-0,224	-0,140
279,400	-0,224	-0,139
279,450	-0,224	-0,140
279,500	-0,224	-0,139
279,550	-0,224	-0,140
279,600	-0,224	-0,139
279,650	-0,224	-0,141
279,700	-0,224	-0,139
279,750	-0,224	-0,141
279,800	-0,224	-0,139
279,850	-0,224	-0,140
279,900	-0,224	-0,139
279,950	-0,224	-0,140
280,000	-0,224	-0,140
280,050	-0,224	-0,140
280,100	-0,224	-0,139
280,150	-0,225	-0,140
280,200	-0,226	-0,140
280,250	-0,226	-0,141
280,300	-0,226	-0,140
280,350	-0,227	-0,141
280,400	-0,227	-0,140
280,450	-0,228	-0,141
280,500	-0,228	-0,141
280,550	-0,228	-0,142
280,600	-0,228	-0,141
280,650	-0,228	-0,142
280,700	-0,228	-0,141
280,750	-0,228	-0,142
280,800	-0,229	-0,141
280,850	-0,228	-0,142
280,900	-0,229	-0,141
280,950	-0,230	-0,142
281,000	-0,230	-0,141
281,050	-0,230	-0,142
281,100	-0,231	-0,142
281,150	-0,231	-0,143
281,200	-0,231	-0,142
281,250	-0,232	-0,143
281,300	-0,232	-0,142
281,350	-0,232	-0,143
281,400	-0,233	-0,142
281,450	-0,233	-0,143
281,500	-0,234	-0,142
281,550	-0,234	-0,144
281,600	-0,234	-0,143
281,650	-0,235	-0,144
281,700	-0,235	-0,143
281,750	-0,235	-0,144
281,800	-0,235	-0,143
281,850	-0,235	-0,144
281,900	-0,236	-0,143
281,950	-0,236	-0,144
282,000	-0,237	-0,144
282,050	-0,237	-0,145
282,100	-0,236	-0,143
282,150	-0,236	-0,144
282,200	-0,236	-0,143
282,250	-0,236	-0,145
282,300	-0,236	-0,143
282,350	-0,237	-0,145
282,400	-0,237	-0,144
282,450	-0,237	-0,145
282,500	-0,238	-0,144
282,550	-0,238	-0,145
282,600	-0,239	-0,144
282,650	-0,239	-0,145
282,700	-0,240	-0,145
282,750	-0,240	-0,146
282,800	-0,240	-0,145
282,850	-0,241	-0,146
282,900	-0,241	-0,145
282,950	-0,241	-0,146
283,000	-0,241	-0,145
283,050	-0,242	-0,146
283,100	-0,242	-0,145
283,150	-0,242	-0,146
283,200	-0,243	-0,145
283,250	-0,243	-0,147
283,300	-0,244	-0,146
283,350	-0,244	-0,147
283,400	-0,244	-0,146
283,450	-0,245	-0,147
283,500	-0,245	-0,146
283,550	-0,245	-0,147
283,600	-0,245	-0,146
283,650	-0,245	-0,147
283,700	-0,245	-0,146
283,750	-0,245	-0,147
283,800	-0,245	-0,146
283,850	-0,246	-0,147
283,900	-0,247	-0,147
283,950	-0,248	-0,148
284,000	-0,248	-0,147
284,050	-0,249	-0,148
284,100	-0,249	-0,147
284,150	-0,249	-0,149
284,200	-0,249	-0,148
284,250	-0,249	-0,148
284,300	-0,249	-0,147
284,350	-0,250	-0,149
284,400	-0,250	-0,148
284,450	-0,251	-0,149
284,500	-0,251	-0,148
284,550	-0,251	-0,149
284,600	-0,251	-0,148
284,650	-0,251	-0,149
284,700	-0,251	-0,148
284,750	-0,251	-0,149
284,800	-0,251	-0,148
284,850	-0,252	-0,150
284,900	-0,253	-0,148
284,950	-0,253	-0,150
285,000	-0,253	-0,148
285,050	-0,253	-0,150
285,100	-0,253	-0,149
285,150	-0,253	-0,150
285,200	-0,253	-0,149
285,250	-0,253	-0,150
285,300	-0,253	-0,149
285,350	-0,253	-0,150
285,400	-0,253	-0,149
285,450	-0,253	-0,150
285,500	-0,253	-0,149
285,550	-0,253	-0,150
285,600	-0,253	-0,148
285,650	-0,253	-0,150
285,700	-0,254	-0,149
285,750	-0,255	-0,150
285,800	-0,255	-0,149
285,850	-0,255	-0,150
285,900	-0,255	-0,149
285,950	-0,256	-0,150
286,000	-0,257	-0,150
286,050	-0,257	-0,151
286,100	-0,257	-0,150
286,150	-0,257	-0,151
286,200	-0,257	-0,150
286,250	-0,258	-0,151
286,300	-0,258	-0,150
286,350	-0,258	-0,151
286,400	-0,258	-0,150
286,450	-0,258	-0,151
286,500	-0,259	-0,150
286,550	-0,260	-0,152
286,600	-0,260	-0,151
286,650	-0,260	-0,152
286,700	-0,261	-0,151
286,750	-0,262	-0,152
286,800	-0,262	-0,151
286,850	-0,262	-0,152
286,900	-0,263	-0,151
286,950	-0,263	-0,152
287,000	-0,263	-0,152
287,050	-0,264	-0,153
287,100	-0,264	-0,152
287,150	-0,264	-0,153
287,200	-0,264	-0,152
287,250	-0,264	-0,153
287,300	-0,265	-0,152
287,350	-0,264	-0,153
287,400	-0,264	-0,152
287,450	-0,264	-0,153
287,500	-0,264	-0,152
287,550	-0,265	-0,153
287,600	-0,265	-0,152
287,650	-0,265	-0,153
287,700	-0,264	-0,152
287,750	-0,265	-0,153
287,800	-0,265	-0,152
287,850	-0,266	-0,153
287,900	-0,267	-0,153
287,950	-0,267	-0,153
288,000	-0,267	-0,153
288,050	-0,268	-0,154
288,100	-0,267	-0,153
288,150	-0,268	-0,154
288,200	-0,268	-0,153
288,250	-0,268	-0,154
288,300	-0,269	-0,153
288,350	-0,270	-0,154
288,400	-0,270	-0,153
288,450	-0,271	-0,154
288,500	-0,271	-0,154
288,550	-0,272	-0,154
288,600	-0,272	-0,154
288,650	-0,272	-0,155
288,700	-0,273	-0,154
288,750	-0,276	-0,156
288,800	-0,279	-0,156
288,850	-0,280	-0,157
288,900	-0,280	-0,156
288,950	-0,281	-0,157
289,000	-0,281	-0,156
289,050	-0,281	-0,157
289,100	-0,281	-0,156
289,150	-0,281	-0,157
289,200	-0,281	-0,157
289,250	-0,281	-0,157
289,300	-0,282	-0,157
289,350	-0,282	-0,157
289,400	-0,282	-0,156
289,450	-0,283	-0,157
289,500	-0,283	-0,157
289,550	-0,284	-0,158
289,600	-0,284	-0,157
289,650	-0,284	-0,158
289,700	-0,285	-0,157
289,750	-0,285	-0,158
289,800	-0,285	-0,157
289,850	-0,285	-0,158
289,900	-0,285	-0,157
289,950	-0,285	-0,158
290,000	-0,286	-0,157
290,050	-0,286	-0,158
290,100	-0,286	-0,157
290,150	-0,287	-0,158
290,200	-0,287	-0,157
290,250	-0,287	-0,158
290,300	-0,288	-0,158
290,350	-0,288	-0,159
290,400	-0,288	-0,158
290,450	-0,288	-0,159
290,500	-0,288	-0,158
290,550	-0,288	-0,159
290,600	-0,288	-0,158
290,650	-0,288	-0,159
290,700	-0,288	-0,158
290,750	-0,290	-0,159
290,800	-0,293	-0,159
290,850	-0,294	-0,160
290,900	-0,295	-0,159
290,950	-0,295	-0,160
291,000	-0,296	-0,160
291,050	-0,296	-0,160
291,100	-0,296	-0,160
291,150	-0,297	-0,161
291,200	-0,297	-0,160
291,250	-0,297	-0,161
291,300	-0,297	-0,160
291,350	-0,297	-0,161
291,400	-0,297	-0,160
291,450	-0,297	-0,161
291,500	-0,297	-0,160
291,550	-0,297	-0,161
291,600	-0,297	-0,160
291,650	-0,298	-0,161
291,700	-0,299	-0,160
291,750	-0,301	-0,162
291,800	-0,302	-0,161
291,850	-0,302	-0,162
291,900	-0,302	-0,161
291,950	-0,302	-0,162
292,000	-0,303	-0,161
292,050	-0,303	-0,162
292,100	-0,305	-0,162
292,150	-0,305	-0,162
292,200	-0,306	-0,162
292,250	-0,307	-0,163
292,300	-0,307	-0,162
292,350	-0,308	-0,163
292,400	-0,308	-0,163
292,450	-0,309	-0,163
292,500	-0,309	-0,163
292,550	-0,309	-0,163
292,600	-0,309	-0,162
292,650	-0,309	-0,163
292,700	-0,309	-0,163
292,750	-0,309	-0,163
292,800	-0,311	-0,163
292,850	-0,312	-0,163
292,900	-0,313	-0,163
292,950	-0,314	-0,164
293,000	-0,313	-0,163
293,050	-0,314	-0,164
293,100	-0,314	-0,164
293,150	-0,315	-0,164
293,200	-0,316	-0,164
293,250	-0,316	-0,165
293,300	-0,317	-0,165
293,350	-0,317	-0,165
293,400	-0,318	-0,165
293,450	-0,318	-0,165
293,500	-0,318	-0,165
293,550	-0,319	-0,165
293,600	-0,319	-0,165
293,650	-0,319	-0,165
293,700	-0,320	-0,165
293,750	-0,320	-0,165
293,800	-0,321	-0,165
293,850	-0,321	-0,166
293,900	-0,321	-0,165
293,950	-0,322	-0,166
294,000	-0,323	-0,166
294,050	-0,324	-0,166
294,100	-0,324	-0,166
294,150	-0,325	-0,166
294,200	-0,325	-0,166
294,250	-0,326	-0,166
294,300	-0,327	-0,166
294,350	-0,327	-0,167
294,400	-0,328	-0,167
294,450	-0,328	-0,167
294,500	-0,329	-0,167
294,550	-0,329	-0,167
294,600	-0,330	-0,167
294,650	-0,331	-0,167
294,700	-0,331	-0,167
294,750	-0,331	-0,167
294,800	-0,332	-0,167
294,850	-0,332	-0,168
294,900	-0,332	-0,167
294,950	-0,332	-0,167
295,000	-0,332	-0,168
295,050	-0,332	-0,168
295,100	-0,332	-0,168
295,150	-0,332	-0,168
295,200	-0,332	-0,167
295,250	-0,333	-0,168
295,300	-0,333	-0,167
295,350	-0,334	-0,168
295,400	-0,334	-0,168
295,450	-0,335	-0,168
295,500	-0,336	-0,168
295,550	-0,337	-0,169
295,600	-0,338	-0,169
295,650	-0,338	-0,169
295,700	-0,339	-0,169
295,750	-0,340	-0,169
295,800	-0,340	-0,169
295,850	-0,341	-0,169
295,900	-0,342	-0,169
295,950	-0,342	-0,169
296,000	-0,343	-0,170
296,050	-0,344	-0,169
296,100	-0,345	-0,170
296,150	-0,345	-0,170
296,200	-0,346	-0,170
296,250	-0,346	-0,170
296,300	-0,347	-0,170
296,350	-0,347	-0,170
296,400	-0,348	-0,171
296,450	-0,348	-0,170
296,500	-0,348	-0,170
296,550	-0,348	-0,170
296,600	-0,348	-0,171
296,650	-0,348	-0,171
296,700	-0,348	-0,170
296,750	-0,348	-0,170
296,800	-0,348	-0,171
296,850	-0,348	-0,170
296,900	-0,348	-0,171
296,950	-0,350	-0,170
297,000	-0,352	-0,171
297,050	-0,353	-0,171
297,100	-0,355	-0,172
297,150	-0,355	-0,171
297,200	-0,357	-0,172
297,250	-0,358	-0,171
297,300	-0,360	-0,172
297,350	-0,362	-0,172
297,400	-0,363	-0,173
297,450	-0,365	-0,173
297,500	-0,367	-0,173
297,550	-0,368	-0,173
297,600	-0,369	-0,174
297,650	-0,369	-0,173
297,700	-0,369	-0,174
297,750	-0,369	-0,174
297,800	-0,369	-0,174
297,850	-0,369	-0,173
297,900	-0,369	-0,174
297,950	-0,369	-0,174
298,000	-0,369	-0,174
298,050	-0,369	-0,173
298,100	-0,369	-0,174
298,150	-0,369	-0,174
298,200	-0,370	-0,174
298,250	-0,372	-0,174
298,300	-0,373	-0,174
298,350	-0,373	-0,174
298,400	-0,376	-0,175
298,450	-0,378	-0,175
298,500	-0,379	-0,176
298,550	-0,380	-0,175
298,600	-0,381	-0,176
298,650	-0,382	-0,175
298,700	-0,384	-0,176
298,750	-0,385	-0,176
298,800	-0,387	-0,177
298,850	-0,387	-0,176
298,900	-0,388	-0,177
298,950	-0,390	-0,176
299,000	-0,391	-0,177
299,050	-0,393	-0,177
299,100	-0,394	-0,178
299,150	-0,396	-0,177
299,200	-0,398	-0,178
299,250	-0,399	-0,178
299,300	-0,399	-0,179
299,350	-0,400	-0,178
299,400	-0,400	-0,179
299,450	-0,400	-0,178
299,500	-0,400	-0,178
299,550	-0,400	-0,178
299,600	-0,400	-0,179
299,650	-0,400	-0,178
299,700	-0,401	-0,179
299,750	-0,401	-0,178
299,800	-0,402	-0,179
299,850	-0,404	-0,178
299,900	-0,405	-0,179
299,950	-0,405	-0,178
300,000	-0,406	-0,180
300,050	-0,407	-0,179
300,100	-0,407	-0,180
300,150	-0,408	-0,179
300,200	-0,408	-0,180
300,250	-0,408	-0,179
300,300	-0,409	-0,180
300,350	-0,409	-0,179
300,400	-0,409	-0,180
300,450	-0,409	-0,179
300,500	-0,410	-0,180
300,550	-0,410	-0,179
300,600	-0,411	-0,180
300,650	-0,410	-0,179
300,700	-0,411	-0,180
300,750	-0,411	-0,179
300,800	-0,411	-0,180
300,850	-0,411	-0,180
300,900	-0,411	-0,180
300,950	-0,413	-0,180
301,000	-0,414	-0,181
301,050	-0,416	-0,180
301,100	-0,419	-0,181
301,150	-0,421	-0,181
301,200	-0,422	-0,182
301,250	-0,423	-0,181
301,300	-0,423	-0,182
301,350	-0,424	-0,181
301,400	-0,424	-0,182
301,450	-0,424	-0,181
301,500	-0,424	-0,182
301,550	-0,424	-0,181
301,600	-0,425	-0,182
301,650	-0,425	-0,181
301,700	-0,426	-0,182
301,750	-0,427	-0,181
301,800	-0,430	-0,183
301,850	-0,432	-0,182
301,900	-0,433	-0,183
301,950	-0,434	-0,182
302,000	-0,435	-0,183
302,050	-0,435	-0,182
302,100	-0,435	-0,183
302,150	-0,435	-0,182
302,200	-0,435	-0,183
302,250	-0,435	-0,182
302,300	-0,435	-0,184
302,350	-0,436	-0,182
302,400	-0,437	-0,184
302,450	-0,438	-0,183
302,500	-0,438	-0,184
302,550	-0,439	-0,183
302,600	-0,439	-0,184
302,650	-0,440	-0,183
302,700	-0,441	-0,184
302,750	-0,441	-0,183
302,800	-0,441	-0,184
302,850	-0,443	-0,183
302,900	-0,443	-0,185
302,950	-0,444	-0,183
303,000	-0,445	-0,185
303,050	-0,446	-0,183
303,100	-0,447	-0,185
303,150	-0,447	-0,184
303,200	-0,447	-0,185
303,250	-0,447	-0,184
303,300	-0,447	-0,185
303,350	-0,447	-0,184
303,400	-0,447	-0,185
303,450	-0,447	-0,184
303,500	-0,447	-0,185
303,550	-0,447	-0,184
303,600	-0,447	-0,185
303,650	-0,447	-0,184
303,700	-0,447	-0,185
303,750	-0,450	-0,184
303,800	-0,452	-0,185
303,850	-0,453	-0,184
303,900	-0,453	-0,186
303,950	-0,454	-0,185
304,000	-0,455	-0,186
304,050	-0,455	-0,185
304,100	-0,456	-0,186
304,150	-0,458	-0,185
304,200	-0,460	-0,187
304,250	-0,461	-0,185
304,300	-0,462	-0,187
304,350	-0,463	-0,186
304,400	-0,466	-0,187
304,450	-0,468	-0,186
304,500	-0,469	-0,187
304,550	-0,470	-0,186
304,600	-0,471	-0,188
304,650	-0,472	-0,187
304,700	-0,474	-0,188
304,750	-0,476	-0,187
304,800	-0,477	-0,188
304,850	-0,477	-0,188
304,900	-0,477	-0,188
304,950	-0,477	-0,187
305,000	-0,478	-0,189
305,050	-0,480	-0,187
305,100	-0,481	-0,189
305,150	-0,482	-0,188
305,200	-0,483	-0,189
305,250	-0,484	-0,188
305,300	-0,484	-0,189
305,350	-0,484	-0,188
305,400	-0,484	-0,189
305,450	-0,484	-0,188
305,500	-0,484	-0,189
305,550	-0,484	-0,188
305,600	-0,484	-0,189
305,650	-0,484	-0,188
305,700	-0,484	-0,189
305,750	-0,486	-0,188
305,800	-0,491	-0,190
305,850	-0,494	-0,189
305,900	-0,497	-0,190
305,950	-0,499	-0,189
306,000	-0,499	-0,191
306,050	-0,500	-0,190
306,100	-0,501	-0,191
306,150	-0,502	-0,190
306,200	-0,503	-0,191
306,250	-0,504	-0,190
306,300	-0,505	-0,191
306,350	-0,506	-0,190
306,400	-0,507	-0,192
306,450	-0,509	-0,191
306,500	-0,510	-0,192
306,550	-0,511	-0,191
306,600	-0,511	-0,192
306,650	-0,511	-0,191
306,700	-0,511	-0,192
306,750	-0,511	-0,190
306,800	-0,511	-0,192
306,850	-0,513	-0,191
306,900	-0,516	-0,192
306,950	-0,518	-0,192
307,000	-0,520	-0,193
307,050	-0,521	-0,192
307,100	-0,522	-0,193
307,150	-0,523	-0,192
307,200	-0,525	-0,193
307,250	-0,525	-0,192
307,300	-0,526	-0,194
307,350	-0,528	-0,192
307,400	-0,528	-0,194
307,450	-0,528	-0,193
307,500	-0,528	-0,194
307,550	-0,528	-0,192
307,600	-0,528	-0,194
307,650	-0,528	-0,192
307,700	-0,529	-0,194
307,750	-0,531	-0,193
307,800	-0,534	-0,194
307,850	-0,535	-0,193
307,900	-0,536	-0,195
307,950	-0,537	-0,193
308,000	-0,539	-0,195
308,050	-0,542	-0,194
308,100	-0,544	-0,195
308,150	-0,545	-0,194
308,200	-0,548	-0,195
308,250	-0,550	-0,194
308,300	-0,550	-0,196
308,350	-0,551	-0,194
308,400	-0,552	-0,196
308,450	-0,553	-0,195
308,500	-0,555	-0,196
308,550	-0,555	-0,195
308,600	-0,556	-0,196
308,650	-0,555	-0,195
308,700	-0,556	-0,196
308,750	-0,556	-0,195
308,800	-0,556	-0,196
308,850	-0,556	-0,195
308,900	-0,556	-0,197
308,950	-0,556	-0,195
309,000	-0,556	-0,196
309,050	-0,558	-0,195
309,100	-0,565	-0,197
309,150	-0,570	-0,196
309,200	-0,572	-0,198
309,250	-0,573	-0,197
309,300	-0,573	-0,198
309,350	-0,573	-0,197
309,400	-0,574	-0,198
309,450	-0,576	-0,197
309,500	-0,577	-0,198
309,550	-0,578	-0,197
309,600	-0,579	-0,198
309,650	-0,581	-0,197
309,700	-0,583	-0,199
309,750	-0,585	-0,198
309,800	-0,586	-0,199
309,850	-0,588	-0,198
309,900	-0,589	-0,199
309,950	-0,590	-0,198
310,000	-0,590	-0,199
310,050	-0,592	-0,198
310,100	-0,593	-0,199
310,150	-0,594	-0,198
310,200	-0,596	-0,200
310,250	-0,596	-0,199
310,300	-0,596	-0,200
310,350	-0,596	-0,198
310,400	-0,597	-0,200
310,450	-0,597	-0,199
310,500	-0,597	-0,200
310,550	-0,597	-0,199
310,600	-0,599	-0,200
310,650	-0,603	-0,199
310,700	-0,606	-0,201
310,750	-0,607	-0,199
310,800	-0,608	-0,201
310,850	-0,608	-0,200
310,900	-0,609	-0,201
310,950	-0,611	-0,200
311,000	-0,612	-0,201
311,050	-0,612	-0,200
311,100	-0,612	-0,201
311,150	-0,612	-0,200
311,200	-0,613	-0,201
311,250	-0,613	-0,200
311,300	-0,614	-0,201
311,350	-0,617	-0,201
311,400	-0,619	-0,201
311,450	-0,622	-0,201
311,500	-0,623	-0,202
311,550	-0,626	-0,201
311,600	-0,627	-0,202
311,650	-0,629	-0,201
311,700	-0,632	-0,202
311,750	-0,634	-0,202
311,800	-0,636	-0,203
311,850	-0,638	-0,202
311,900	-0,638	-0,203
311,950	-0,638	-0,202
312,000	-0,638	-0,203
312,050	-0,638	-0,202
312,100	-0,638	-0,203
312,150	-0,638	-0,202
312,200	-0,638	-0,203
312,250	-0,639	-0,202
312,300	-0,639	-0,203
312,350	-0,639	-0,202
312,400	-0,641	-0,203
312,450	-0,643	-0,202
312,500	-0,644	-0,203
312,550	-0,644	-0,202
312,600	-0,646	-0,204
312,650	-0,650	-0,203
312,700	-0,653	-0,204
312,750	-0,656	-0,203
312,800	-0,657	-0,205
312,850	-0,658	-0,204
312,900	-0,659	-0,205
312,950	-0,662	-0,204
313,000	-0,665	-0,205
313,050	-0,668	-0,204
313,100	-0,670	-0,205
313,150	-0,672	-0,205
313,200	-0,674	-0,206
313,250	-0,676	-0,205
313,300	-0,678	-0,206
313,350	-0,679	-0,205
313,400	-0,679	-0,206
313,450	-0,679	-0,205
313,500	-0,679	-0,206
313,550	-0,679	-0,205
313,600	-0,677	-0,206
313,650	-0,677	-0,205
313,700	-0,677	-0,206
313,750	-0,677	-0,205
313,800	-0,678	-0,206
313,850	-0,679	-0,206
313,900	-0,683	-0,206
313,950	-0,688	-0,206
314,000	-0,691	-0,207
314,050	-0,694	-0,206
314,100	-0,696	-0,207
314,150	-0,698	-0,207
314,200	-0,699	-0,207
314,250	-0,702	-0,207
314,300	-0,704	-0,208
314,350	-0,706	-0,207
314,400	-0,708	-0,208
314,450	-0,708	-0,207
314,500	-0,708	-0,208
314,550	-0,708	-0,207
314,600	-0,708	-0,208
314,650	-0,708	-0,207
314,700	-0,709	-0,208
314,750	-0,709	-0,207
314,800	-0,710	-0,208
314,850	-0,713	-0,207
314,900	-0,717	-0,208
314,950	-0,719	-0,208
315,000	-0,720	-0,209
315,050	-0,723	-0,208
315,100	-0,726	-0,209
315,150	-0,729	-0,209
315,200	-0,731	-0,209
315,250	-0,734	-0,209
315,300	-0,738	-0,210
315,350	-0,741	-0,210
315,400	-0,745	-0,211
315,450	-0,747	-0,210
315,500	-0,747	-0,210
315,550	-0,748	-0,210
315,600	-0,748	-0,210
315,650	-0,748	-0,210
315,700	-0,748	-0,211
315,750	-0,748	-0,210
315,800	-0,748	-0,211
315,850	-0,749	-0,211
315,900	-0,749	-0,211
315,950	-0,749	-0,210
316,000	-0,751	-0,211
316,050	-0,752	-0,210
316,100	-0,755	-0,211
316,150	-0,757	-0,211
316,200	-0,757	-0,211
316,250	-0,760	-0,211
316,300	-0,762	-0,212
316,350	-0,765	-0,211
316,400	-0,769	-0,212
316,450	-0,771	-0,212
316,500	-0,772	-0,212
316,550	-0,774	-0,212
316,600	-0,777	-0,213
316,650	-0,779	-0,212
316,700	-0,782	-0,213
316,750	-0,786	-0,213
316,800	-0,789	-0,213
316,850	-0,792	-0,213
316,900	-0,793	-0,213
316,950	-0,795	-0,213
317,000	-0,796	-0,214
317,050	-0,796	-0,213
317,100	-0,796	-0,213
317,150	-0,796	-0,213
317,200	-0,795	-0,213
317,250	-0,795	-0,213
317,300	-0,796	-0,214
317,350	-0,796	-0,213
317,400	-0,796	-0,214
317,450	-0,796	-0,213
317,500	-0,796	-0,213
317,550	-0,796	-0,213
317,600	-0,797	-0,214
317,650	-0,800	-0,213
317,700	-0,804	-0,214
317,750	-0,807	-0,214
317,800	-0,809	-0,214
317,850	-0,811	-0,214
317,900	-0,813	-0,214
317,950	-0,815	-0,215
318,000	-0,817	-0,215
318,050	-0,818	-0,215
318,100	-0,820	-0,215
318,150	-0,822	-0,215
318,200	-0,823	-0,215
318,250	-0,825	-0,215
318,300	-0,826	-0,215
318,350	-0,828	-0,215
318,400	-0,830	-0,215
318,450	-0,832	-0,216
318,500	-0,834	-0,216
318,550	-0,835	-0,216
318,600	-0,835	-0,216
318,650	-0,835	-0,216
318,700	-0,835	-0,216
318,750	-0,836	-0,216
318,800	-0,835	-0,216
318,850	-0,836	-0,216
318,900	-0,836	-0,216
318,950	-0,836	-0,216
319,000	-0,838	-0,216
319,050	-0,841	-0,216
319,100	-0,843	-0,216
319,150	-0,845	-0,217
319,200	-0,847	-0,217
319,250	-0,849	-0,217
319,300	-0,852	-0,217
319,350	-0,855	-0,217
319,400	-0,856	-0,217
319,450	-0,856	-0,217
319,500	-0,856	-0,217
319,550	-0,860	-0,217
319,600	-0,863	-0,217
319,650	-0,865	-0,218
319,700	-0,865	-0,217
319,750	-0,865	-0,218
319,800	-0,867	-0,218
319,850	-0,869	-0,218
319,900	-0,871	-0,218
319,950	-0,872	-0,218
320,000	-0,872	-0,218
320,050	-0,872	-0,218
320,100	-0,872	-0,218
320,150	-0,872	-0,218
320,200	-0,872	-0,218
320,250	-0,872	-0,218
320,300	-0,872	-0,218
320,350	-0,873	-0,218
320,400	-0,872	-0,218
320,450	-0,872	-0,218
320,500	-0,874	-0,218
320,550	-0,881	-0,219
320,600	-0,885	-0,219
320,650	-0,886	-0,219
320,700	-0,886	-0,219
320,750	-0,886	-0,219
320,800	-0,886	-0,219
320,850	-0,887	-0,219
320,900	-0,889	-0,219
320,950	-0,891	-0,220
321,000	-0,892	-0,219
321,050	-0,894	-0,219
321,100	-0,895	-0,219
321,150	-0,896	-0,219
321,200	-0,898	-0,219
321,250	-0,900	-0,220
321,300	-0,900	-0,219
321,350	-0,901	-0,219
321,400	-0,903	-0,219
321,450	-0,905	-0,220
321,500	-0,906	-0,219
321,550	-0,908	-0,220
321,600	-0,909	-0,220
321,650	-0,911	-0,221
321,700	-0,911	-0,220
321,750	-0,912	-0,220
321,800	-0,912	-0,220
321,850	-0,912	-0,220
321,900	-0,912	-0,220
321,950	-0,912	-0,220
322,000	-0,912	-0,220
322,050	-0,913	-0,220
322,100	-0,918	-0,220
322,150	-0,922	-0,221
322,200	-0,924	-0,220
322,250	-0,926	-0,221
322,300	-0,928	-0,221
322,350	-0,930	-0,221
322,400	-0,932	-0,221
322,450	-0,935	-0,222
322,500	-0,938	-0,222
322,550	-0,939	-0,222
322,600	-0,940	-0,221
322,650	-0,941	-0,222
322,700	-0,943	-0,221
322,750	-0,945	-0,222
322,800	-0,947	-0,222
322,850	-0,949	-0,223
322,900	-0,951	-0,222
322,950	-0,953	-0,223
323,000	-0,953	-0,222
323,050	-0,953	-0,223
323,100	-0,954	-0,222
323,150	-0,954	-0,223
323,200	-0,954	-0,222
323,250	-0,954	-0,223
323,300	-0,954	-0,222
323,350	-0,954	-0,223
323,400	-0,955	-0,222
323,450	-0,955	-0,223
323,500	-0,955	-0,222
323,550	-0,955	-0,223
323,600	-0,955	-0,222
323,650	-0,955	-0,223
323,700	-0,959	-0,222
323,750	-0,963	-0,223
323,800	-0,964	-0,222
323,850	-0,964	-0,223
323,900	-0,964	-0,222
323,950	-0,965	-0,223
324,000	-0,967	-0,223
324,050	-0,967	-0,224
324,100	-0,968	-0,223
324,150	-0,972	-0,224
324,200	-0,974	-0,223
324,250	-0,975	-0,224
324,300	-0,976	-0,223
324,350	-0,978	-0,225
324,400	-0,981	-0,224
324,450	-0,982	-0,225
324,500	-0,982	-0,224
324,550	-0,983	-0,224
324,600	-0,985	-0,223
324,650	-0,986	-0,225
324,700	-0,987	-0,224
324,750	-0,987	-0,225
324,800	-0,987	-0,223
324,850	-0,987	-0,225
324,900	-0,987	-0,224
324,950	-0,988	-0,225
325,000	-0,988	-0,224
325,050	-0,988	-0,225
325,100	-0,988	-0,224
325,150	-0,988	-0,225
325,200	-0,988	-0,224
325,250	-0,990	-0,225
325,300	-0,994	-0,224
325,350	-0,997	-0,225
325,400	-0,999	-0,224
325,450	-0,999	-0,225
325,500	-0,999	-0,224
325,550	-0,999	-0,225
325,600	-0,999	-0,224
325,650	-0,999	-0,225
325,700	-0,999	-0,224
325,750	-0,999	-0,226
325,800	-0,999	-0,224
325,850	-0,999	-0,225
325,900	-0,999	-0,224
325,950	-0,999	-0,226
326,000	-0,999	-0,224
326,050	-0,999	-0,225
326,100	-0,999	-0,224
326,150	-0,999	-0,225
326,200	-0,999	-0,224
326,250	-0,999	-0,225
326,300	-0,999	-0,224
326,350	-0,999	-0,225
326,400	-0,999	-0,224
326,450	-0,999	-0,225
326,500	-0,999	-0,224
326,550	-0,999	-0,226
326,600	-0,999	-0,224
326,650	-0,999	-0,225
326,700	-0,999	-0,224
326,750	-0,999	-0,225
326,800	-0,999	-0,224
326,850	-0,999	-0,225
326,900	-0,999	-0,224
326,950	-0,999	-0,225
327,000	-0,999	-0,224
327,050	-0,999	-0,225
327,100	-0,999	-0,224
327,150	-0,999	-0,225
327,200	-0,999	-0,224
327,250	-0,999	-0,225
327,300	-0,999	-0,224
327,350	-0,999	-0,225
327,400	-0,999	-0,224
327,450	-0,999	-0,225
327,500	-0,999	-0,224
327,550	-0,999	-0,225
327,600	-0,999	-0,224
327,650	-0,999	-0,225
327,700	-0,999	-0,224
327,750	-0,999	-0,225
327,800	-0,999	-0,224
327,850	-0,999	-0,225
327,900	-0,999	-0,224
327,950	-0,999	-0,225
328,000	-0,999	-0,224
328,050	-0,999	-0,225
328,100	-0,999	-0,224
328,150	-0,999	-0,226
328,200	-0,999	-0,224
328,250	-0,999	-0,225
328,300	-0,999	-0,224
328,350	-0,999	-0,225
328,400	-0,999	-0,224
328,450	-0,999	-0,225
328,500	-0,999	-0,224
328,550	-0,999	-0,225
328,600	-0,999	-0,224
328,650	-0,999	-0,225
328,700	-0,999	-0,224
328,750	-0,999	-0,225
328,800	-0,999	-0,224
328,850	-0,999	-0,226
328,900	-0,999	-0,224
