Zeit (s) Messreihe #3	Spannung, Ch A (V) Messreihe #3	Spannung, Ch B (V) Messreihe #3
0,000	6,993E-4	9,706E-4
0,050	6,078E-4	0,002
0,100	6,273E-4	0,001
0,150	5,297E-4	0,002
0,200	5,944E-4	0,001
0,250	6,981E-4	0,002
0,300	3,392E-4	7,838E-4
0,350	3,954E-4	0,002
0,400	5,370E-4	0,001
0,450	3,978E-4	0,002
0,500	5,345E-4	0,001
0,550	4,491E-4	0,002
0,600	6,188E-4	0,001
0,650	5,431E-4	0,002
0,700	5,553E-4	0,001
0,750	7,213E-4	0,002
0,800	6,481E-4	0,001
0,850	6,456E-4	0,002
0,900	5,236E-4	0,001
0,950	5,406E-4	0,002
1,000	7,531E-4	0,002
1,050	5,150E-4	0,002
1,100	5,577E-4	0,001
1,150	6,847E-4	0,002
1,200	4,088E-4	0,001
1,250	6,578E-4	0,002
1,300	6,749E-4	0,002
1,350	5,614E-4	0,002
1,400	6,957E-4	0,002
1,450	7,531E-4	0,003
1,500	5,150E-4	0,001
1,550	4,711E-4	0,002
1,600	6,407E-4	0,002
1,650	5,760E-4	0,003
1,700	3,368E-4	0,001
1,750	5,223E-4	0,002
1,800	5,492E-4	0,002
1,850	4,979E-4	0,003
1,900	6,066E-4	0,002
1,950	3,905E-4	0,002
2,000	6,517E-4	0,002
2,050	7,140E-4	0,003
2,100	9,728E-4	0,002
2,150	3,209E-4	0,003
2,200	5,529E-4	0,002
2,250	4,833E-4	0,003
2,300	3,539E-4	0,002
2,350	6,249E-4	0,003
2,400	5,223E-4	0,002
2,450	7,982E-4	0,003
2,500	8,177E-4	0,002
2,550	7,531E-4	0,003
2,600	6,566E-4	0,002
2,650	3,466E-4	0,003
2,700	6,725E-4	0,002
2,750	6,115E-4	0,003
2,800	4,930E-4	0,002
2,850	3,649E-4	0,003
2,900	4,760E-4	0,002
2,950	7,140E-4	0,003
3,000	5,931E-4	0,002
3,050	4,808E-4	0,003
3,100	4,662E-4	0,002
3,150	6,835E-4	0,003
3,200	5,858E-4	0,002
3,250	6,517E-4	0,003
3,300	4,930E-4	0,002
3,350	4,296E-4	0,003
3,400	7,079E-4	0,003
3,450	4,027E-4	0,003
3,500	6,322E-4	0,002
3,550	7,616E-4	0,003
3,600	2,574E-4	0,002
3,650	4,711E-4	0,003
3,700	3,734E-4	0,002
3,750	7,372E-4	0,004
3,800	5,321E-4	0,003
3,850	7,006E-4	0,004
3,900	8,568E-4	0,003
3,950	5,980E-4	0,004
4,000	5,883E-4	0,003
4,050	6,871E-4	0,004
4,100	5,138E-4	0,003
4,150	2,990E-4	0,003
4,200	4,979E-4	0,003
4,250	4,943E-4	0,004
4,300	6,444E-4	0,003
4,350	4,491E-4	0,004
4,400	8,141E-4	0,003
4,450	5,321E-4	0,004
4,500	8,751E-4	0,003
4,550	6,835E-4	0,004
4,600	7,286E-4	0,003
4,650	7,750E-4	0,004
4,700	6,713E-4	0,003
4,750	6,029E-4	0,004
4,800	6,420E-4	0,003
4,850	4,430E-4	0,004
4,900	6,871E-4	0,003
4,950	5,284E-4	0,004
5,000	8,593E-4	0,003
5,050	5,541E-4	0,004
5,100	6,896E-4	0,003
5,150	5,468E-4	0,004
5,200	7,592E-4	0,003
5,250	3,661E-4	0,004
5,300	3,429E-4	0,003
5,350	3,441E-4	0,004
5,400	4,161E-4	0,003
5,450	5,931E-4	0,004
5,500	6,957E-4	0,003
5,550	5,162E-4	0,004
5,600	6,969E-4	0,004
5,650	4,760E-4	0,004
5,700	4,430E-4	0,003
5,750	2,892E-4	0,004
5,800	6,102E-4	0,003
5,850	4,296E-4	0,004
5,900	5,028E-4	0,003
5,950	7,897E-4	0,004
6,000	5,272E-4	0,003
6,050	6,444E-4	0,004
6,100	6,823E-4	0,004
6,150	4,503E-4	0,004
6,200	6,530E-4	0,004
6,250	3,612E-4	0,004
6,300	5,980E-4	0,004
6,350	7,592E-4	0,005
6,400	7,054E-4	0,004
6,450	6,444E-4	0,004
6,500	6,749E-4	0,004
6,550	7,238E-4	0,005
6,600	6,871E-4	0,004
6,650	9,117E-4	0,005
6,700	6,554E-4	0,004
6,750	8,885E-4	0,005
6,800	5,968E-4	0,004
6,850	8,129E-4	0,005
6,900	6,969E-4	0,004
6,950	7,726E-4	0,005
7,000	6,212E-4	0,004
7,050	8,409E-4	0,005
7,100	3,344E-4	0,004
7,150	4,235E-4	0,005
7,200	8,605E-4	0,004
7,250	7,067E-4	0,005
7,300	0,001	0,004
7,350	3,282E-4	0,005
7,400	3,160E-4	0,004
7,450	7,201E-4	0,005
7,500	5,504E-4	0,004
7,550	6,578E-4	0,005
7,600	5,724E-4	0,004
7,650	7,494E-4	0,005
7,700	7,933E-4	0,004
7,750	6,078E-4	0,005
7,800	5,358E-4	0,004
7,850	6,029E-4	0,005
7,900	5,712E-4	0,004
7,950	6,591E-4	0,005
8,000	6,700E-4	0,004
8,050	7,836E-4	0,005
8,100	7,579E-4	0,005
8,150	3,649E-4	0,005
8,200	7,054E-4	0,005
8,250	6,041E-4	0,005
8,300	6,102E-4	0,005
8,350	4,930E-4	0,005
8,400	5,712E-4	0,005
8,450	5,419E-4	0,005
8,500	6,993E-4	0,005
8,550	2,721E-4	0,005
8,600	6,029E-4	0,005
8,650	4,760E-4	0,005
8,700	8,434E-4	0,005
8,750	6,298E-4	0,005
8,800	7,677E-4	0,005
8,850	7,177E-4	0,006
8,900	7,579E-4	0,005
8,950	7,958E-4	0,006
9,000	7,091E-4	0,005
9,050	9,215E-4	0,006
9,100	9,301E-4	0,005
9,150	0,001	0,006
9,200	6,688E-4	0,005
9,250	5,370E-4	0,006
9,300	6,469E-4	0,005
9,350	7,616E-4	0,006
9,400	7,347E-4	0,005
9,450	7,103E-4	0,006
9,500	4,991E-4	0,005
9,550	6,835E-4	0,006
9,600	4,357E-4	0,005
9,650	7,653E-4	0,006
9,700	6,322E-4	0,005
9,750	5,333E-4	0,006
9,800	8,312E-4	0,005
9,850	5,956E-4	0,006
9,900	4,894E-4	0,005
9,950	8,043E-4	0,006
10,000	5,687E-4	0,005
10,050	5,516E-4	0,006
10,100	7,140E-4	0,005
10,150	7,775E-4	0,006
10,200	4,698E-4	0,005
10,250	8,690E-4	0,006
10,300	5,455E-4	0,005
10,350	7,531E-4	0,006
10,400	7,201E-4	0,006
10,450	7,482E-4	0,006
10,500	5,724E-4	0,005
10,550	4,552E-4	0,006
10,600	5,175E-4	0,005
10,650	5,577E-4	0,006
10,700	7,469E-4	0,006
10,750	5,406E-4	0,006
10,800	7,518E-4	0,006
10,850	6,102E-4	0,006
10,900	3,636E-4	0,005
10,950	6,615E-4	0,006
11,000	6,505E-4	0,006
11,050	0,001	0,007
11,100	3,185E-4	0,005
11,150	7,799E-4	0,006
11,200	6,005E-4	0,006
11,250	5,272E-4	0,006
11,300	5,321E-4	0,006
11,350	6,371E-4	0,007
11,400	6,188E-4	0,006
11,450	6,188E-4	0,006
11,500	4,589E-4	0,006
11,550	4,552E-4	0,007
11,600	5,175E-4	0,006
11,650	5,236E-4	0,007
11,700	5,724E-4	0,006
11,750	1,793E-4	0,006
11,800	5,907E-4	0,006
11,850	5,944E-4	0,007
11,900	6,517E-4	0,006
11,950	6,176E-4	0,007
12,000	9,325E-4	0,006
12,050	9,655E-4	0,007
12,100	5,748E-4	0,006
12,150	7,140E-4	0,007
12,200	7,213E-4	0,006
12,250	7,567E-4	0,007
12,300	8,824E-4	0,006
12,350	5,114E-4	0,007
12,400	7,823E-4	0,006
12,450	7,384E-4	0,007
12,500	7,335E-4	0,006
12,550	4,723E-4	0,007
12,600	6,603E-4	0,006
12,650	6,371E-4	0,007
12,700	7,982E-4	0,007
12,750	7,152E-4	0,007
12,800	6,078E-4	0,006
12,850	5,248E-4	0,007
12,900	6,542E-4	0,006
12,950	5,516E-4	0,007
13,000	6,420E-4	0,006
13,050	5,944E-4	0,007
13,100	5,797E-4	0,007
13,150	6,322E-4	0,007
13,200	6,456E-4	0,007
13,250	4,991E-4	0,007
13,300	5,846E-4	0,007
13,350	4,418E-4	0,007
13,400	4,381E-4	0,006
13,450	5,333E-4	0,007
13,500	5,211E-4	0,007
13,550	3,514E-4	0,007
13,600	6,151E-4	0,007
13,650	5,345E-4	0,007
13,700	8,165E-4	0,007
13,750	6,151E-4	0,007
13,800	2,538E-4	0,006
13,850	2,794E-4	0,007
13,900	5,675E-4	0,007
13,950	5,968E-4	0,007
14,000	5,394E-4	0,007
14,050	3,221E-4	0,007
14,100	3,698E-4	0,007
14,150	4,772E-4	0,007
14,200	7,665E-4	0,007
14,250	4,662E-4	0,007
14,300	9,203E-4	0,007
14,350	6,285E-4	0,008
14,400	5,651E-4	0,007
14,450	4,247E-4	0,007
14,500	5,931E-4	0,007
14,550	6,798E-4	0,008
14,600	5,956E-4	0,007
14,650	8,568E-4	0,008
14,700	7,469E-4	0,007
14,750	4,137E-4	0,008
14,800	7,543E-4	0,007
14,850	2,391E-4	0,008
14,900	9,130E-4	0,008
14,950	9,496E-4	0,008
15,000	7,018E-4	0,008
15,050	7,030E-4	0,008
15,100	6,505E-4	0,008
15,150	6,981E-4	0,008
15,200	6,664E-4	0,007
15,250	3,868E-4	0,008
15,300	5,809E-4	0,008
15,350	8,544E-4	0,008
15,400	5,663E-4	0,008
15,450	6,542E-4	0,008
15,500	8,275E-4	0,008
15,550	6,688E-4	0,008
15,600	6,761E-4	0,008
15,650	6,652E-4	0,008
15,700	3,685E-4	0,008
15,750	6,517E-4	0,008
15,800	5,162E-4	0,008
15,850	6,798E-4	0,008
15,900	2,184E-4	0,007
15,950	6,371E-4	0,008
16,000	4,747E-4	0,008
16,050	8,348E-4	0,009
16,100	5,565E-4	0,008
16,150	5,736E-4	0,008
16,200	3,942E-4	0,008
16,250	4,186E-4	0,008
16,300	7,177E-4	0,008
16,350	8,409E-4	0,009
16,400	8,348E-4	0,008
16,450	6,188E-4	0,009
16,500	4,430E-4	0,008
16,550	5,553E-4	0,008
16,600	5,236E-4	0,008
16,650	6,469E-4	0,009
16,700	7,128E-4	0,008
16,750	5,712E-4	0,008
16,800	7,030E-4	0,008
16,850	7,543E-4	0,009
16,900	3,771E-4	0,008
16,950	6,139E-4	0,009
17,000	1,549E-4	0,008
17,050	6,249E-4	0,009
17,100	4,747E-4	0,008
17,150	4,210E-4	0,008
17,200	7,091E-4	0,008
17,250	6,566E-4	0,009
17,300	7,982E-4	0,009
17,350	5,394E-4	0,009
17,400	6,652E-4	0,008
17,450	5,968E-4	0,009
17,500	6,102E-4	0,008
17,550	6,395E-4	0,009
17,600	4,760E-4	0,008
17,650	6,774E-4	0,009
17,700	7,091E-4	0,009
17,750	7,274E-4	0,009
17,800	6,749E-4	0,009
17,850	6,652E-4	0,009
17,900	6,322E-4	0,009
17,950	8,116E-4	0,009
18,000	3,759E-4	0,008
18,050	6,139E-4	0,009
18,100	2,990E-4	0,008
18,150	6,615E-4	0,009
18,200	5,687E-4	0,009
18,250	7,079E-4	0,009
18,300	4,247E-4	0,009
18,350	2,855E-4	0,009
18,400	7,030E-4	0,009
18,450	5,638E-4	0,009
18,500	4,576E-4	0,009
18,550	5,638E-4	0,009
18,600	3,698E-4	0,009
18,650	5,895E-4	0,009
18,700	4,515E-4	0,009
18,750	8,446E-4	0,010
18,800	6,163E-4	0,009
18,850	7,360E-4	0,009
18,900	4,149E-4	0,009
18,950	5,223E-4	0,009
19,000	4,283E-4	0,009
19,050	4,369E-4	0,009
19,100	5,809E-4	0,009
19,150	5,614E-4	0,009
19,200	6,749E-4	0,009
19,250	6,163E-4	0,009
19,300	6,932E-4	0,009
19,350	7,677E-4	0,010
19,400	5,516E-4	0,009
19,450	5,272E-4	0,010
19,500	6,578E-4	0,009
19,550	7,384E-4	0,010
19,600	6,981E-4	0,009
19,650	6,981E-4	0,010
19,700	7,115E-4	0,009
19,750	3,710E-4	0,010
19,800	4,674E-4	0,009
19,850	6,407E-4	0,010
19,900	8,141E-4	0,010
19,950	6,627E-4	0,010
20,000	5,651E-4	0,009
20,050	4,686E-4	0,010
20,100	6,249E-4	0,009
20,150	5,614E-4	0,010
20,200	4,210E-4	0,009
20,250	3,746E-4	0,010
20,300	8,239E-4	0,010
20,350	5,712E-4	0,010
20,400	6,798E-4	0,010
20,450	5,187E-4	0,010
20,500	6,481E-4	0,010
20,550	2,794E-4	0,010
20,600	5,529E-4	0,010
20,650	4,430E-4	0,010
20,700	7,067E-4	0,010
20,750	6,493E-4	0,010
20,800	5,492E-4	0,010
20,850	8,495E-4	0,011
20,900	6,810E-4	0,010
20,950	8,043E-4	0,010
21,000	4,882E-4	0,010
21,050	6,359E-4	0,010
21,100	9,227E-4	0,010
21,150	7,238E-4	0,010
21,200	6,517E-4	0,010
21,250	6,652E-4	0,010
21,300	7,555E-4	0,010
21,350	5,638E-4	0,010
21,400	7,201E-4	0,010
21,450	4,686E-4	0,010
21,500	6,127E-4	0,010
21,550	6,212E-4	0,010
21,600	7,750E-4	0,010
21,650	8,092E-4	0,011
21,700	5,931E-4	0,010
21,750	4,845E-4	0,010
21,800	7,006E-4	0,010
21,850	4,113E-4	0,010
21,900	4,674E-4	0,010
21,950	6,737E-4	0,011
22,000	6,652E-4	0,010
22,050	5,199E-4	0,011
22,100	4,247E-4	0,010
22,150	6,346E-4	0,011
22,200	6,517E-4	0,010
22,250	8,043E-4	0,011
22,300	7,555E-4	0,011
22,350	5,114E-4	0,011
22,400	6,859E-4	0,011
22,450	6,993E-4	0,011
22,500	6,530E-4	0,010
22,550	6,749E-4	0,011
22,600	8,690E-4	0,011
22,650	7,506E-4	0,011
22,700	4,894E-4	0,010
22,750	4,760E-4	0,011
22,800	6,761E-4	0,011
22,850	3,148E-4	0,011
22,900	1,842E-4	0,010
22,950	5,431E-4	0,011
23,000	5,297E-4	0,011
23,050	6,444E-4	0,011
23,100	3,844E-4	0,011
23,150	6,688E-4	0,011
23,200	0,001	0,011
23,250	5,004E-4	0,011
23,300	7,543E-4	0,011
23,350	5,431E-4	0,011
23,400	7,518E-4	0,011
23,450	5,468E-4	0,011
23,500	4,503E-4	0,011
23,550	5,577E-4	0,011
23,600	6,090E-4	0,011
23,650	5,663E-4	0,011
23,700	6,334E-4	0,011
23,750	8,129E-4	0,012
23,800	6,395E-4	0,011
23,850	6,029E-4	0,011
23,900	7,189E-4	0,011
23,950	4,747E-4	0,011
24,000	4,161E-4	0,011
24,050	6,969E-4	0,011
24,100	7,689E-4	0,011
24,150	2,990E-4	0,011
24,200	0,001	0,012
24,250	7,604E-4	0,012
24,300	3,881E-4	0,011
24,350	8,507E-4	0,012
24,400	6,774E-4	0,011
24,450	5,724E-4	0,011
24,500	5,944E-4	0,011
24,550	8,617E-4	0,012
24,600	5,101E-4	0,011
24,650	6,920E-4	0,012
24,700	8,690E-4	0,012
24,750	5,675E-4	0,012
24,800	8,336E-4	0,012
24,850	7,689E-4	0,012
24,900	4,052E-4	0,011
24,950	6,713E-4	0,012
25,000	4,686E-4	0,011
25,050	6,151E-4	0,012
25,100	4,149E-4	0,011
25,150	7,115E-4	0,012
25,200	8,861E-4	0,012
25,250	5,907E-4	0,012
25,300	7,823E-4	0,012
25,350	6,176E-4	0,012
25,400	8,251E-4	0,012
25,450	7,738E-4	0,012
25,500	6,847E-4	0,012
25,550	9,435E-4	0,012
25,600	6,334E-4	0,012
25,650	6,737E-4	0,012
25,700	7,152E-4	0,012
25,750	8,434E-4	0,012
25,800	5,760E-4	0,012
25,850	7,006E-4	0,012
25,900	7,115E-4	0,012
25,950	7,677E-4	0,012
26,000	7,067E-4	0,012
26,050	5,529E-4	0,012
26,100	5,297E-4	0,012
26,150	6,493E-4	0,012
26,200	7,567E-4	0,012
26,250	4,821E-4	0,012
26,300	6,774E-4	0,012
26,350	7,311E-4	0,012
26,400	5,980E-4	0,012
26,450	7,433E-4	0,012
26,500	8,788E-4	0,012
26,550	5,638E-4	0,012
26,600	6,188E-4	0,012
26,650	9,203E-4	0,013
26,700	7,335E-4	0,012
26,750	9,313E-4	0,013
26,800	5,968E-4	0,012
26,850	6,908E-4	0,013
26,900	5,834E-4	0,012
26,950	6,029E-4	0,013
27,000	6,798E-4	0,012
27,050	7,408E-4	0,013
27,100	6,456E-4	0,012
27,150	6,737E-4	0,013
27,200	6,432E-4	0,012
27,250	6,847E-4	0,013
27,300	6,469E-4	0,012
27,350	6,163E-4	0,013
27,400	9,227E-4	0,013
27,450	6,530E-4	0,013
27,500	7,665E-4	0,013
27,550	8,458E-4	0,013
27,600	5,651E-4	0,013
27,650	5,004E-4	0,013
27,700	7,054E-4	0,013
27,750	6,029E-4	0,013
27,800	6,615E-4	0,013
27,850	6,322E-4	0,013
27,900	6,359E-4	0,013
27,950	5,492E-4	0,013
28,000	5,895E-4	0,013
28,050	6,066E-4	0,013
28,100	6,749E-4	0,013
28,150	5,101E-4	0,013
28,200	8,934E-4	0,013
28,250	5,406E-4	0,013
28,300	3,795E-4	0,013
28,350	6,932E-4	0,013
28,400	8,324E-4	0,013
28,450	5,382E-4	0,013
28,500	4,430E-4	0,013
28,550	5,358E-4	0,013
28,600	4,723E-4	0,013
28,650	6,359E-4	0,013
28,700	4,052E-4	0,013
28,750	4,869E-4	0,013
28,800	5,468E-4	0,013
28,850	4,418E-4	0,013
28,900	4,222E-4	0,013
28,950	6,310E-4	0,013
29,000	3,929E-4	0,013
29,050	5,724E-4	0,013
29,100	6,786E-4	0,013
29,150	7,543E-4	0,014
29,200	8,019E-4	0,013
29,250	7,445E-4	0,014
29,300	7,262E-4	0,013
29,350	7,946E-4	0,014
29,400	6,688E-4	0,013
29,450	7,091E-4	0,014
29,500	5,297E-4	0,013
29,550	8,654E-4	0,014
29,600	9,044E-4	0,014
29,650	6,212E-4	0,014
29,700	7,152E-4	0,014
29,750	7,604E-4	0,014
29,800	8,641E-4	0,014
29,850	8,373E-4	0,014
29,900	8,702E-4	0,014
29,950	8,458E-4	0,014
30,000	6,835E-4	0,014
30,050	9,362E-4	0,014
30,100	5,260E-4	0,013
30,150	8,654E-4	0,014
30,200	0,001	0,014
30,250	7,079E-4	0,014
30,300	3,954E-4	0,013
30,350	9,606E-4	0,014
30,400	6,456E-4	0,014
30,450	7,201E-4	0,014
30,500	9,178E-4	0,014
30,550	6,871E-4	0,014
30,600	5,883E-4	0,014
30,650	7,531E-4	0,014
30,700	8,336E-4	0,014
30,750	0,001	0,014
30,800	7,079E-4	0,014
30,850	4,210E-4	0,014
30,900	8,629E-4	0,014
30,950	7,115E-4	0,014
31,000	0,001	0,014
31,050	0,001	0,015
31,100	8,434E-4	0,014
31,150	5,651E-4	0,014
31,200	8,055E-4	0,014
31,250	5,797E-4	0,014
31,300	5,077E-4	0,014
31,350	6,761E-4	0,014
31,400	8,092E-4	0,014
31,450	0,001	0,015
31,500	7,006E-4	0,014
31,550	7,823E-4	0,015
31,600	7,665E-4	0,014
31,650	7,946E-4	0,015
31,700	8,409E-4	0,014
31,750	7,469E-4	0,015
31,800	8,739E-4	0,015
31,850	8,544E-4	0,015
31,900	5,297E-4	0,014
31,950	8,727E-4	0,015
32,000	7,128E-4	0,015
32,050	6,920E-4	0,015
32,100	7,238E-4	0,015
32,150	7,396E-4	0,015
32,200	7,701E-4	0,015
32,250	5,760E-4	0,015
32,300	9,301E-4	0,015
32,350	7,616E-4	0,015
32,400	0,001	0,015
32,450	7,457E-4	0,015
32,500	7,616E-4	0,015
32,550	7,079E-4	0,015
32,600	8,068E-4	0,015
32,650	8,239E-4	0,015
32,700	7,531E-4	0,015
32,750	7,347E-4	0,015
32,800	7,543E-4	0,015
32,850	5,663E-4	0,015
32,900	6,749E-4	0,015
32,950	4,760E-4	0,015
33,000	5,834E-4	0,015
33,050	5,370E-4	0,015
33,100	7,872E-4	0,015
33,150	7,396E-4	0,015
33,200	0,001	0,015
33,250	5,614E-4	0,015
33,300	6,066E-4	0,015
33,350	6,127E-4	0,015
33,400	7,872E-4	0,015
33,450	8,959E-4	0,016
33,500	7,128E-4	0,015
33,550	6,469E-4	0,015
33,600	6,469E-4	0,015
33,650	4,418E-4	0,015
33,700	8,678E-4	0,015
33,750	8,129E-4	0,016
33,800	7,115E-4	0,015
33,850	7,653E-4	0,016
33,900	9,349E-4	0,015
33,950	8,617E-4	0,016
34,000	6,078E-4	0,015
34,050	6,847E-4	0,016
34,100	6,066E-4	0,015
34,150	6,603E-4	0,016
34,200	8,947E-4	0,016
34,250	9,154E-4	0,016
34,300	7,445E-4	0,016
34,350	8,580E-4	0,016
34,400	6,444E-4	0,015
34,450	8,275E-4	0,016
34,500	9,276E-4	0,016
34,550	7,982E-4	0,016
34,600	9,117E-4	0,016
34,650	7,579E-4	0,016
34,700	7,933E-4	0,016
34,750	7,213E-4	0,016
34,800	5,907E-4	0,016
34,850	5,284E-4	0,016
34,900	8,885E-4	0,016
34,950	7,823E-4	0,016
35,000	8,507E-4	0,016
35,050	7,115E-4	0,016
35,100	9,520E-4	0,016
35,150	6,542E-4	0,016
35,200	9,618E-4	0,016
35,250	8,605E-4	0,016
35,300	8,007E-4	0,016
35,350	6,139E-4	0,016
35,400	8,239E-4	0,016
35,450	6,786E-4	0,016
35,500	6,835E-4	0,016
35,550	6,005E-4	0,016
35,600	8,422E-4	0,016
35,650	9,313E-4	0,017
35,700	6,359E-4	0,016
35,750	5,236E-4	0,016
35,800	7,396E-4	0,016
35,850	6,493E-4	0,016
35,900	6,053E-4	0,016
35,950	7,811E-4	0,017
36,000	7,042E-4	0,016
36,050	9,105E-4	0,017
36,100	9,581E-4	0,016
36,150	0,001	0,017
36,200	7,567E-4	0,016
36,250	7,091E-4	0,017
36,300	7,994E-4	0,017
36,350	8,971E-4	0,017
36,400	6,298E-4	0,016
36,450	0,001	0,017
36,500	5,944E-4	0,016
36,550	4,943E-4	0,017
36,600	9,764E-4	0,017
36,650	8,312E-4	0,017
36,700	7,714E-4	0,017
36,750	7,592E-4	0,017
36,800	7,738E-4	0,017
36,850	8,739E-4	0,017
36,900	6,542E-4	0,017
36,950	8,422E-4	0,017
37,000	7,274E-4	0,017
37,050	6,725E-4	0,017
37,100	8,251E-4	0,017
37,150	7,347E-4	0,017
37,200	6,066E-4	0,017
37,250	5,846E-4	0,017
37,300	3,295E-4	0,016
37,350	6,212E-4	0,017
37,400	7,872E-4	0,017
37,450	6,139E-4	0,017
37,500	6,664E-4	0,017
37,550	8,348E-4	0,017
37,600	7,677E-4	0,017
37,650	5,895E-4	0,017
37,700	7,323E-4	0,017
37,750	8,019E-4	0,017
37,800	9,020E-4	0,017
37,850	7,921E-4	0,018
37,900	0,001	0,017
37,950	8,007E-4	0,017
38,000	8,556E-4	0,017
38,050	7,079E-4	0,018
38,100	5,956E-4	0,017
38,150	6,017E-4	0,018
38,200	4,406E-4	0,017
38,250	8,629E-4	0,018
38,300	6,334E-4	0,017
38,350	5,345E-4	0,018
38,400	7,140E-4	0,017
38,450	9,130E-4	0,018
38,500	9,618E-4	0,018
38,550	8,409E-4	0,018
38,600	5,504E-4	0,017
38,650	8,776E-4	0,018
38,700	9,813E-4	0,018
38,750	8,458E-4	0,018
38,800	6,188E-4	0,017
38,850	8,373E-4	0,018
38,900	4,882E-4	0,017
38,950	6,700E-4	0,018
39,000	7,579E-4	0,018
39,050	6,823E-4	0,018
39,100	5,504E-4	0,018
39,150	3,209E-4	0,018
39,200	7,579E-4	0,018
39,250	2,831E-4	0,018
39,300	7,665E-4	0,018
39,350	5,468E-4	0,018
39,400	8,300E-4	0,018
39,450	5,919E-4	0,018
39,500	5,980E-4	0,018
39,550	6,981E-4	0,018
39,600	8,556E-4	0,018
39,650	4,869E-4	0,018
39,700	7,457E-4	0,018
39,750	5,297E-4	0,018
39,800	7,579E-4	0,018
39,850	5,492E-4	0,018
39,900	7,762E-4	0,018
39,950	9,447E-4	0,019
40,000	8,214E-4	0,018
40,050	8,568E-4	0,019
40,100	0,001	0,018
40,150	9,606E-4	0,019
40,200	9,484E-4	0,018
40,250	7,006E-4	0,019
40,300	6,737E-4	0,018
40,350	4,918E-4	0,018
40,400	6,908E-4	0,018
40,450	7,421E-4	0,019
40,500	0,001	0,019
40,550	8,202E-4	0,019
40,600	6,639E-4	0,018
40,650	8,422E-4	0,019
40,700	5,992E-4	0,018
40,750	6,664E-4	0,019
40,800	7,567E-4	0,018
40,850	6,554E-4	0,019
40,900	6,884E-4	0,018
40,950	8,446E-4	0,019
41,000	5,712E-4	0,018
41,050	5,760E-4	0,019
41,100	8,837E-4	0,019
41,150	9,337E-4	0,019
41,200	9,117E-4	0,019
41,250	6,432E-4	0,019
41,300	6,810E-4	0,019
41,350	9,801E-4	0,019
41,400	5,272E-4	0,018
41,450	5,345E-4	0,019
41,500	4,650E-4	0,018
41,550	8,641E-4	0,019
41,600	7,421E-4	0,019
41,650	9,117E-4	0,020
41,700	8,934E-4	0,019
41,750	4,259E-4	0,019
41,800	6,395E-4	0,019
41,850	5,687E-4	0,019
41,900	5,626E-4	0,019
41,950	7,225E-4	0,019
42,000	9,313E-4	0,019
42,050	6,896E-4	0,019
42,100	5,797E-4	0,019
42,150	7,836E-4	0,020
42,200	4,821E-4	0,019
42,250	5,187E-4	0,019
42,300	9,362E-4	0,019
42,350	8,995E-4	0,020
42,400	9,386E-4	0,019
42,450	6,456E-4	0,020
42,500	5,577E-4	0,019
42,550	6,627E-4	0,020
42,600	5,345E-4	0,019
42,650	5,577E-4	0,020
42,700	6,713E-4	0,019
42,750	5,638E-4	0,020
42,800	7,921E-4	0,019
42,850	8,043E-4	0,020
42,900	6,810E-4	0,019
42,950	5,211E-4	0,020
43,000	6,017E-4	0,019
43,050	7,909E-4	0,020
43,100	8,947E-4	0,020
43,150	0,001	0,020
43,200	8,727E-4	0,020
43,250	7,445E-4	0,020
43,300	6,603E-4	0,019
43,350	5,333E-4	0,020
43,400	7,335E-4	0,020
43,450	5,883E-4	0,020
43,500	6,224E-4	0,019
43,550	7,726E-4	0,020
43,600	4,271E-4	0,019
43,650	6,835E-4	0,020
43,700	5,419E-4	0,019
43,750	9,484E-4	0,020
43,800	9,081E-4	0,020
43,850	7,299E-4	0,020
43,900	7,201E-4	0,020
43,950	5,004E-4	0,020
44,000	6,969E-4	0,020
44,050	9,178E-4	0,021
44,100	9,032E-4	0,020
44,150	6,334E-4	0,020
44,200	6,493E-4	0,020
44,250	8,495E-4	0,020
44,300	7,347E-4	0,020
44,350	8,568E-4	0,021
44,400	6,908E-4	0,020
44,450	7,982E-4	0,020
44,500	9,948E-4	0,020
44,550	8,446E-4	0,020
44,600	7,189E-4	0,020
44,650	8,983E-4	0,021
44,700	8,702E-4	0,020
44,750	7,958E-4	0,021
44,800	9,215E-4	0,020
44,850	7,152E-4	0,021
44,900	9,203E-4	0,020
44,950	8,641E-4	0,021
45,000	5,187E-4	0,020
45,050	6,871E-4	0,021
45,100	6,261E-4	0,020
45,150	5,431E-4	0,020
45,200	0,001	0,021
45,250	6,334E-4	0,021
45,300	5,638E-4	0,020
45,350	7,726E-4	0,021
45,400	6,346E-4	0,020
45,450	6,444E-4	0,021
45,500	8,971E-4	0,021
45,550	0,001	0,021
45,600	8,361E-4	0,020
45,650	6,115E-4	0,021
45,700	6,786E-4	0,020
45,750	5,394E-4	0,021
45,800	6,359E-4	0,020
45,850	7,823E-4	0,021
45,900	8,129E-4	0,020
45,950	5,236E-4	0,021
46,000	5,773E-4	0,020
46,050	9,288E-4	0,021
46,100	5,175E-4	0,020
46,150	9,911E-4	0,021
46,200	0,001	0,021
46,250	8,702E-4	0,021
46,300	4,760E-4	0,020
46,350	7,823E-4	0,021
46,400	9,838E-4	0,021
46,450	7,994E-4	0,021
46,500	9,130E-4	0,021
46,550	9,032E-4	0,021
46,600	8,336E-4	0,021
46,650	7,628E-4	0,021
46,700	7,213E-4	0,021
46,750	7,860E-4	0,021
46,800	8,593E-4	0,021
46,850	6,737E-4	0,021
46,900	7,286E-4	0,021
46,950	8,031E-4	0,021
47,000	0,001	0,021
47,050	7,982E-4	0,021
47,100	8,226E-4	0,021
47,150	6,774E-4	0,021
47,200	6,163E-4	0,021
47,250	7,592E-4	0,021
47,300	7,640E-4	0,021
47,350	0,001	0,022
47,400	5,626E-4	0,021
47,450	9,008E-4	0,022
47,500	8,495E-4	0,021
47,550	8,177E-4	0,022
47,600	6,761E-4	0,021
47,650	0,001	0,022
47,700	6,908E-4	0,021
47,750	8,873E-4	0,022
47,800	7,250E-4	0,021
47,850	7,140E-4	0,022
47,900	7,787E-4	0,021
47,950	8,202E-4	0,022
48,000	7,360E-4	0,021
48,050	7,628E-4	0,022
48,100	3,685E-4	0,021
48,150	4,296E-4	0,021
48,200	8,141E-4	0,021
48,250	8,531E-4	0,022
48,300	0,001	0,022
48,350	0,001	0,022
48,400	7,494E-4	0,022
48,450	6,859E-4	0,022
48,500	7,457E-4	0,022
48,550	1,659E-4	0,021
48,600	5,101E-4	0,021
48,650	3,856E-4	0,022
48,700	8,470E-4	0,022
48,750	6,847E-4	0,022
48,800	7,103E-4	0,022
48,850	6,456E-4	0,022
48,900	7,152E-4	0,022
48,950	6,823E-4	0,022
49,000	0,001	0,022
49,050	7,518E-4	0,022
49,100	8,409E-4	0,022
49,150	6,664E-4	0,022
49,200	6,469E-4	0,022
49,250	7,799E-4	0,022
49,300	7,238E-4	0,022
49,350	5,565E-4	0,022
49,400	5,211E-4	0,022
49,450	6,078E-4	0,022
49,500	6,066E-4	0,022
49,550	6,945E-4	0,022
49,600	7,384E-4	0,022
49,650	5,834E-4	0,022
49,700	5,773E-4	0,022
49,750	6,542E-4	0,023
49,800	8,678E-4	0,022
49,850	9,020E-4	0,023
49,900	6,725E-4	0,022
49,950	9,203E-4	0,023
50,000	7,323E-4	0,022
50,050	7,872E-4	0,023
50,100	5,309E-4	0,022
50,150	4,698E-4	0,022
50,200	7,347E-4	0,022
50,250	7,079E-4	0,023
50,300	6,969E-4	0,022
50,350	5,126E-4	0,023
50,400	9,093E-4	0,022
50,450	6,041E-4	0,023
50,500	9,655E-4	0,023
50,550	8,385E-4	0,023
50,600	0,001	0,023
50,650	9,191E-4	0,023
50,700	8,678E-4	0,023
50,750	8,531E-4	0,023
50,800	5,553E-4	0,022
50,850	4,723E-4	0,023
50,900	8,580E-4	0,023
50,950	5,358E-4	0,023
51,000	9,008E-4	0,023
51,050	7,238E-4	0,023
51,100	9,520E-4	0,023
51,150	7,177E-4	0,023
51,200	7,494E-4	0,023
51,250	8,031E-4	0,023
51,300	6,603E-4	0,023
51,350	8,190E-4	0,023
51,400	7,567E-4	0,023
51,450	4,357E-4	0,023
51,500	6,102E-4	0,023
51,550	0,001	0,024
51,600	5,297E-4	0,023
51,650	6,749E-4	0,023
51,700	8,007E-4	0,023
51,750	8,275E-4	0,024
51,800	7,018E-4	0,023
51,850	5,712E-4	0,023
51,900	6,969E-4	0,023
51,950	8,458E-4	0,024
52,000	3,221E-4	0,023
52,050	8,666E-4	0,024
52,100	6,163E-4	0,023
52,150	9,215E-4	0,024
52,200	6,151E-4	0,023
52,250	8,861E-4	0,024
52,300	0,001	0,023
52,350	9,679E-4	0,024
52,400	7,909E-4	0,023
52,450	8,531E-4	0,024
52,500	7,030E-4	0,023
52,550	7,335E-4	0,024
52,600	6,139E-4	0,023
52,650	9,142E-4	0,024
52,700	4,601E-4	0,023
52,750	6,859E-4	0,024
52,800	0,001	0,024
52,850	0,001	0,024
52,900	7,262E-4	0,023
52,950	8,544E-4	0,024
53,000	0,001	0,024
53,050	6,945E-4	0,024
53,100	0,001	0,024
53,150	9,264E-4	0,024
53,200	0,001	0,024
53,250	7,054E-4	0,024
53,300	7,604E-4	0,023
53,350	5,687E-4	0,024
53,400	6,041E-4	0,023
53,450	9,447E-4	0,024
53,500	6,761E-4	0,023
53,550	5,126E-4	0,024
53,600	8,104E-4	0,024
53,650	8,751E-4	0,025
53,700	7,714E-4	0,024
53,750	6,322E-4	0,024
53,800	6,371E-4	0,024
53,850	7,543E-4	0,024
53,900	9,008E-4	0,024
53,950	9,069E-4	0,025
54,000	6,969E-4	0,024
54,050	7,262E-4	0,024
54,100	8,116E-4	0,024
54,150	5,175E-4	0,024
54,200	0,001	0,024
54,250	9,362E-4	0,025
54,300	8,751E-4	0,024
54,350	5,114E-4	0,024
54,400	9,557E-4	0,024
54,450	7,018E-4	0,025
54,500	8,226E-4	0,024
54,550	7,189E-4	0,025
54,600	9,093E-4	0,024
54,650	7,628E-4	0,025
54,700	6,395E-4	0,024
54,750	7,860E-4	0,025
54,800	7,262E-4	0,024
54,850	3,563E-4	0,024
54,900	7,323E-4	0,024
54,950	4,406E-4	0,025
55,000	7,177E-4	0,024
55,050	6,603E-4	0,025
55,100	6,395E-4	0,024
55,150	6,053E-4	0,025
55,200	6,395E-4	0,024
55,250	2,855E-4	0,024
55,300	4,857E-4	0,024
55,350	8,116E-4	0,025
55,400	6,737E-4	0,024
55,450	7,103E-4	0,025
55,500	9,044E-4	0,024
55,550	6,981E-4	0,025
55,600	9,301E-4	0,025
55,650	7,897E-4	0,025
55,700	8,495E-4	0,025
55,750	9,764E-4	0,025
55,800	7,946E-4	0,025
55,850	7,543E-4	0,025
55,900	6,859E-4	0,024
55,950	8,971E-4	0,025
56,000	7,323E-4	0,025
56,050	9,349E-4	0,026
56,100	4,784E-4	0,024
56,150	6,908E-4	0,025
56,200	8,580E-4	0,025
56,250	9,313E-4	0,026
56,300	6,090E-4	0,025
56,350	6,896E-4	0,025
56,400	7,408E-4	0,025
56,450	7,115E-4	0,026
56,500	9,276E-4	0,025
56,550	6,957E-4	0,025
56,600	7,531E-4	0,025
56,650	6,017E-4	0,025
56,700	8,470E-4	0,025
56,750	6,188E-4	0,025
56,800	7,836E-4	0,025
56,850	0,001	0,026
56,900	6,737E-4	0,025
56,950	7,360E-4	0,026
57,000	6,932E-4	0,025
57,050	7,054E-4	0,026
57,100	6,383E-4	0,025
57,150	6,969E-4	0,026
57,200	8,910E-4	0,025
57,250	4,210E-4	0,026
57,300	8,177E-4	0,025
57,350	5,675E-4	0,026
57,400	8,934E-4	0,025
57,450	7,836E-4	0,026
57,500	9,191E-4	0,025
57,550	0,001	0,026
57,600	8,214E-4	0,025
57,650	6,090E-4	0,026
57,700	4,015E-4	0,025
57,750	8,971E-4	0,026
57,800	4,625E-4	0,025
57,850	3,881E-4	0,026
57,900	6,493E-4	0,025
57,950	7,946E-4	0,026
58,000	7,848E-4	0,025
58,050	6,395E-4	0,026
58,100	6,957E-4	0,025
58,150	7,189E-4	0,026
58,200	5,590E-4	0,025
58,250	7,323E-4	0,026
58,300	5,382E-4	0,025
58,350	7,958E-4	0,026
58,400	7,640E-4	0,026
58,450	6,005E-4	0,026
58,500	6,652E-4	0,025
58,550	0,001	0,027
58,600	6,786E-4	0,026
58,650	5,699E-4	0,026
58,700	6,835E-4	0,026
58,750	9,313E-4	0,027
58,800	0,001	0,026
58,850	6,444E-4	0,026
58,900	6,664E-4	0,026
58,950	9,764E-4	0,027
59,000	6,176E-4	0,026
59,050	7,091E-4	0,027
59,100	8,593E-4	0,026
59,150	9,252E-4	0,027
59,200	6,664E-4	0,026
59,250	7,115E-4	0,027
59,300	6,359E-4	0,026
59,350	0,001	0,027
59,400	9,825E-4	0,026
59,450	7,762E-4	0,027
59,500	5,150E-4	0,026
59,550	4,662E-4	0,026
59,600	6,542E-4	0,026
59,650	9,154E-4	0,027
59,700	7,555E-4	0,026
59,750	0,001	0,027
59,800	0,001	0,026
59,850	0,001	0,027
59,900	9,777E-4	0,026
59,950	5,052E-4	0,027
60,000	9,886E-4	0,026
60,050	6,969E-4	0,027
60,100	7,372E-4	0,026
60,150	5,419E-4	0,027
60,200	8,385E-4	0,026
60,250	5,126E-4	0,027
60,300	6,334E-4	0,026
60,350	7,775E-4	0,027
60,400	9,532E-4	0,027
60,450	7,860E-4	0,027
60,500	9,191E-4	0,027
60,550	7,115E-4	0,027
60,600	8,336E-4	0,027
60,650	7,628E-4	0,027
60,700	5,590E-4	0,026
60,750	8,373E-4	0,027
60,800	3,917E-4	0,026
60,850	7,860E-4	0,027
60,900	8,544E-4	0,027
60,950	9,166E-4	0,028
61,000	7,555E-4	0,027
61,050	5,773E-4	0,027
61,100	9,752E-4	0,027
61,150	0,001	0,028
61,200	7,482E-4	0,027
61,250	6,578E-4	0,027
61,300	6,517E-4	0,027
61,350	0,001	0,028
61,400	8,129E-4	0,027
61,450	6,224E-4	0,028
61,500	4,393E-4	0,027
61,550	8,446E-4	0,028
61,600	7,579E-4	0,027
61,650	9,606E-4	0,028
61,700	9,166E-4	0,027
61,750	9,838E-4	0,028
61,800	8,885E-4	0,027
61,850	5,834E-4	0,028
61,900	8,812E-4	0,027
61,950	7,701E-4	0,028
62,000	0,001	0,027
62,050	0,001	0,028
62,100	6,945E-4	0,027
62,150	9,154E-4	0,028
62,200	8,190E-4	0,027
62,250	6,029E-4	0,028
62,300	7,775E-4	0,027
62,350	8,983E-4	0,028
62,400	7,592E-4	0,027
62,450	6,322E-4	0,028
62,500	8,104E-4	0,027
62,550	6,664E-4	0,028
62,600	7,518E-4	0,027
62,650	8,812E-4	0,028
62,700	0,001	0,028
62,750	8,739E-4	0,029
62,800	6,176E-4	0,027
62,850	8,995E-4	0,029
62,900	9,447E-4	0,028
62,950	7,262E-4	0,028
63,000	7,213E-4	0,028
63,050	8,593E-4	0,029
63,100	8,727E-4	0,028
63,150	8,202E-4	0,028
63,200	7,689E-4	0,028
63,250	0,001	0,029
63,300	0,001	0,028
63,350	9,337E-4	0,029
63,400	8,824E-4	0,028
63,450	7,384E-4	0,029
63,500	9,899E-4	0,028
63,550	5,309E-4	0,028
63,600	7,567E-4	0,028
63,650	8,837E-4	0,029
63,700	7,494E-4	0,028
63,750	8,666E-4	0,029
63,800	7,689E-4	0,028
63,850	7,897E-4	0,029
63,900	8,239E-4	0,028
63,950	5,724E-4	0,029
64,000	6,127E-4	0,028
64,050	8,080E-4	0,029
64,100	8,336E-4	0,028
64,150	7,421E-4	0,029
64,200	7,238E-4	0,028
64,250	6,200E-4	0,029
64,300	7,567E-4	0,028
64,350	7,396E-4	0,029
64,400	7,408E-4	0,028
64,450	7,616E-4	0,029
64,500	7,213E-4	0,028
64,550	7,860E-4	0,029
64,600	8,080E-4	0,028
64,650	7,982E-4	0,029
64,700	8,873E-4	0,028
64,750	9,227E-4	0,029
64,800	8,104E-4	0,028
64,850	9,227E-4	0,029
64,900	8,971E-4	0,028
64,950	6,884E-4	0,029
65,000	8,519E-4	0,028
65,050	9,777E-4	0,029
65,100	6,786E-4	0,028
65,150	9,191E-4	0,029
65,200	8,580E-4	0,028
65,250	9,252E-4	0,030
65,300	7,836E-4	0,028
65,350	8,177E-4	0,029
65,400	5,150E-4	0,028
65,450	9,581E-4	0,030
65,500	7,872E-4	0,029
65,550	6,554E-4	0,029
65,600	8,727E-4	0,029
65,650	6,566E-4	0,029
65,700	5,883E-4	0,028
65,750	8,385E-4	0,030
65,800	6,005E-4	0,029
65,850	9,532E-4	0,030
65,900	0,001	0,029
65,950	0,001	0,030
66,000	7,640E-4	0,029
66,050	7,262E-4	0,030
66,100	6,298E-4	0,029
66,150	8,312E-4	0,030
66,200	7,531E-4	0,029
66,250	8,031E-4	0,030
66,300	8,141E-4	0,029
66,350	7,494E-4	0,030
66,400	9,996E-4	0,029
66,450	8,885E-4	0,030
66,500	9,044E-4	0,029
66,550	0,001	0,030
66,600	7,421E-4	0,029
66,650	7,897E-4	0,030
66,700	8,068E-4	0,029
66,750	9,056E-4	0,030
66,800	3,087E-4	0,029
66,850	8,934E-4	0,030
66,900	9,252E-4	0,029
66,950	0,001	0,030
67,000	8,214E-4	0,029
67,050	6,469E-4	0,030
67,100	7,006E-4	0,029
67,150	8,873E-4	0,030
67,200	7,994E-4	0,029
67,250	5,297E-4	0,030
67,300	8,531E-4	0,029
67,350	9,203E-4	0,030
67,400	8,629E-4	0,030
67,450	8,422E-4	0,030
67,500	7,311E-4	0,030
67,550	6,737E-4	0,030
67,600	7,286E-4	0,029
67,650	8,007E-4	0,030
67,700	7,384E-4	0,030
67,750	6,932E-4	0,030
67,800	8,702E-4	0,030
67,850	6,981E-4	0,030
67,900	0,001	0,030
67,950	7,555E-4	0,031
68,000	9,301E-4	0,030
68,050	4,967E-4	0,030
68,100	7,067E-4	0,030
68,150	7,616E-4	0,031
68,200	7,006E-4	0,030
68,250	7,006E-4	0,031
68,300	9,557E-4	0,030
68,350	6,749E-4	0,031
68,400	8,055E-4	0,030
68,450	8,812E-4	0,031
68,500	6,090E-4	0,030
68,550	8,409E-4	0,031
68,600	7,628E-4	0,030
68,650	9,813E-4	0,031
68,700	6,481E-4	0,030
68,750	5,114E-4	0,031
68,800	8,922E-4	0,030
68,850	6,871E-4	0,031
68,900	9,508E-4	0,030
68,950	7,592E-4	0,031
69,000	9,044E-4	0,030
69,050	7,628E-4	0,031
69,100	6,786E-4	0,030
69,150	8,226E-4	0,031
69,200	8,116E-4	0,030
69,250	9,911E-4	0,031
69,300	8,666E-4	0,030
69,350	5,748E-4	0,031
69,400	8,312E-4	0,030
69,450	8,959E-4	0,031
69,500	9,264E-4	0,030
69,550	7,494E-4	0,031
69,600	6,615E-4	0,030
69,650	7,885E-4	0,031
69,700	6,761E-4	0,030
69,750	0,001	0,031
69,800	9,093E-4	0,030
69,850	6,774E-4	0,031
69,900	7,958E-4	0,030
69,950	0,001	0,032
70,000	7,311E-4	0,030
70,050	7,811E-4	0,031
70,100	5,883E-4	0,030
70,150	7,030E-4	0,031
70,200	0,001	0,031
70,250	7,994E-4	0,032
70,300	9,362E-4	0,031
70,350	7,347E-4	0,031
70,400	8,141E-4	0,031
70,450	8,898E-4	0,032
70,500	7,860E-4	0,031
70,550	9,923E-4	0,032
70,600	9,142E-4	0,031
70,650	9,362E-4	0,032
70,700	7,518E-4	0,031
70,750	6,346E-4	0,032
70,800	7,030E-4	0,031
70,850	6,932E-4	0,032
70,900	6,005E-4	0,031
70,950	5,834E-4	0,032
71,000	6,615E-4	0,031
71,050	8,007E-4	0,032
71,100	8,861E-4	0,031
71,150	6,395E-4	0,032
71,200	9,264E-4	0,031
71,250	8,824E-4	0,032
71,300	5,870E-4	0,031
71,350	5,907E-4	0,032
71,400	7,177E-4	0,031
71,450	7,225E-4	0,032
71,500	6,981E-4	0,031
71,550	7,457E-4	0,032
71,600	8,116E-4	0,031
71,650	9,960E-4	0,032
71,700	0,001	0,031
71,750	9,105E-4	0,032
71,800	8,983E-4	0,031
71,850	7,103E-4	0,032
71,900	6,908E-4	0,031
71,950	6,957E-4	0,032
72,000	6,810E-4	0,031
72,050	9,874E-4	0,032
72,100	9,191E-4	0,031
72,150	6,774E-4	0,032
72,200	7,335E-4	0,031
72,250	6,298E-4	0,032
72,300	8,910E-4	0,031
72,350	7,872E-4	0,032
72,400	8,348E-4	0,031
72,450	8,531E-4	0,033
72,500	7,469E-4	0,031
72,550	7,103E-4	0,032
72,600	7,787E-4	0,031
72,650	7,189E-4	0,032
72,700	0,001	0,032
72,750	9,032E-4	0,033
72,800	9,581E-4	0,032
72,850	4,918E-4	0,032
72,900	6,652E-4	0,031
72,950	8,031E-4	0,033
73,000	6,444E-4	0,031
73,050	8,116E-4	0,033
73,100	9,520E-4	0,032
73,150	7,018E-4	0,033
73,200	6,652E-4	0,032
73,250	6,932E-4	0,033
73,300	8,007E-4	0,032
73,350	0,001	0,033
73,400	9,264E-4	0,032
73,450	0,001	0,033
73,500	7,433E-4	0,032
73,550	9,105E-4	0,033
73,600	6,420E-4	0,032
73,650	9,313E-4	0,033
73,700	6,310E-4	0,032
73,750	9,618E-4	0,033
73,800	8,251E-4	0,032
73,850	9,044E-4	0,033
73,900	9,520E-4	0,032
73,950	8,165E-4	0,033
74,000	9,728E-4	0,032
74,050	7,177E-4	0,033
74,100	6,542E-4	0,032
74,150	8,336E-4	0,033
74,200	7,872E-4	0,032
74,250	8,983E-4	0,033
74,300	9,252E-4	0,032
74,350	6,993E-4	0,033
74,400	7,689E-4	0,032
74,450	8,202E-4	0,033
74,500	0,001	0,032
74,550	6,664E-4	0,033
74,600	7,836E-4	0,032
74,650	7,103E-4	0,033
74,700	9,899E-4	0,032
74,750	0,001	0,034
74,800	8,934E-4	0,032
74,850	8,446E-4	0,034
74,900	8,409E-4	0,032
74,950	9,948E-4	0,034
75,000	7,677E-4	0,033
75,050	6,505E-4	0,033
75,100	6,371E-4	0,032
75,150	8,336E-4	0,034
75,200	6,310E-4	0,032
75,250	7,067E-4	0,034
75,300	7,225E-4	0,033
75,350	5,992E-4	0,033
75,400	6,139E-4	0,032
75,450	6,908E-4	0,034
75,500	6,835E-4	0,032
75,550	7,262E-4	0,034
75,600	7,714E-4	0,033
75,650	7,140E-4	0,034
75,700	6,566E-4	0,033
75,750	8,373E-4	0,034
75,800	8,177E-4	0,033
75,850	7,128E-4	0,034
75,900	7,579E-4	0,033
75,950	6,700E-4	0,034
76,000	6,737E-4	0,033
76,050	4,869E-4	0,034
76,100	7,067E-4	0,033
76,150	8,177E-4	0,034
76,200	8,409E-4	0,033
76,250	9,813E-4	0,034
76,300	6,530E-4	0,033
76,350	6,017E-4	0,034
76,400	6,066E-4	0,033
76,450	8,031E-4	0,034
76,500	7,750E-4	0,033
76,550	8,898E-4	0,034
76,600	7,970E-4	0,033
76,650	5,858E-4	0,034
76,700	5,553E-4	0,033
76,750	7,006E-4	0,034
76,800	8,300E-4	0,033
76,850	7,933E-4	0,035
76,900	8,287E-4	0,033
76,950	7,115E-4	0,034
77,000	7,152E-4	0,033
77,050	6,761E-4	0,034
77,100	7,665E-4	0,033
77,150	5,687E-4	0,034
77,200	7,775E-4	0,034
77,250	7,042E-4	0,035
77,300	9,227E-4	0,034
77,350	6,432E-4	0,035
77,400	6,627E-4	0,033
77,450	6,005E-4	0,035
77,500	5,028E-4	0,033
77,550	8,495E-4	0,035
77,600	8,080E-4	0,034
77,650	6,115E-4	0,035
77,700	8,263E-4	0,034
77,750	5,358E-4	0,035
77,800	5,211E-4	0,033
77,850	7,628E-4	0,035
77,900	6,981E-4	0,034
77,950	7,042E-4	0,035
78,000	6,481E-4	0,034
78,050	5,236E-4	0,035
78,100	4,943E-4	0,034
78,150	8,434E-4	0,035
78,200	0,001	0,034
78,250	0,001	0,035
78,300	7,653E-4	0,034
78,350	7,750E-4	0,035
78,400	3,282E-4	0,034
78,450	6,285E-4	0,035
78,500	6,737E-4	0,034
78,550	4,174E-4	0,035
78,600	6,957E-4	0,034
78,650	9,752E-4	0,035
78,700	7,677E-4	0,034
78,750	6,835E-4	0,035
78,800	8,568E-4	0,034
78,850	8,214E-4	0,035
78,900	4,906E-4	0,034
78,950	5,284E-4	0,035
79,000	6,554E-4	0,034
79,050	6,163E-4	0,035
79,100	7,897E-4	0,035
79,150	5,760E-4	0,035
79,200	8,739E-4	0,035
79,250	8,373E-4	0,036
79,300	8,666E-4	0,035
79,350	8,116E-4	0,036
79,400	8,995E-4	0,035
79,450	8,507E-4	0,036
79,500	6,847E-4	0,035
79,550	6,163E-4	0,036
79,600	7,140E-4	0,035
79,650	5,040E-4	0,035
79,700	6,298E-4	0,035
79,750	7,006E-4	0,036
79,800	8,226E-4	0,035
79,850	4,137E-4	0,035
79,900	9,459E-4	0,035
79,950	7,030E-4	0,036
80,000	0,001	0,035
80,050	7,738E-4	0,036
80,100	6,163E-4	0,035
80,150	7,921E-4	0,036
80,200	9,838E-4	0,035
80,250	7,897E-4	0,036
80,300	6,920E-4	0,035
80,350	9,606E-4	0,036
80,400	0,001	0,035
80,450	7,518E-4	0,036
80,500	4,564E-4	0,035
80,550	8,812E-4	0,036
80,600	6,957E-4	0,035
80,650	5,968E-4	0,036
80,700	6,237E-4	0,035
80,750	6,078E-4	0,036
80,800	7,103E-4	0,035
80,850	6,749E-4	0,036
80,900	7,836E-4	0,035
80,950	5,077E-4	0,036
81,000	6,615E-4	0,035
81,050	4,735E-4	0,036
81,100	5,577E-4	0,035
81,150	7,982E-4	0,036
81,200	5,870E-4	0,035
81,250	8,788E-4	0,036
81,300	9,984E-4	0,036
81,350	6,115E-4	0,036
81,400	6,005E-4	0,035
81,450	6,224E-4	0,036
81,500	7,811E-4	0,036
81,550	5,541E-4	0,036
81,600	4,747E-4	0,035
81,650	5,052E-4	0,036
81,700	7,836E-4	0,036
81,750	9,618E-4	0,037
81,800	6,603E-4	0,036
81,850	6,102E-4	0,037
81,900	7,616E-4	0,036
81,950	5,773E-4	0,037
82,000	6,456E-4	0,036
82,050	0,001	0,037
82,100	6,566E-4	0,036
82,150	6,285E-4	0,037
82,200	7,616E-4	0,036
82,250	8,080E-4	0,037
82,300	6,407E-4	0,036
